time (s)	coil I (A)	last det (V)	int current (uC)
1439.943561	1.343698	0.683476	675.879883
1439.944631	1.802505	0.683476	2604.560059
1439.945582	1.755461	0.683476	4274.003906
1439.946448	1.704602	0.683476	5750.189453
1439.947520	1.645067	0.683476	7513.701660
1439.948535	1.590919	0.683476	9128.484375
1439.949435	1.546000	0.683476	10519.883789
1439.950418	0.631849	0.683476	11140.992187
1439.951462	0.095479	0.683476	11240.671875
1439.952378	0.095295	0.683476	11327.962891
1439.953242	0.095306	0.683476	11410.307617
1439.954317	0.095409	0.683476	11512.872070
1439.955314	0.095277	0.683476	11607.863281
1439.956192	0.095314	0.683476	11691.548828
1439.957186	0.095273	0.683476	11786.250977
1439.958234	0.095292	0.683476	11886.117187
1439.959125	0.095244	0.683476	11970.979492
1439.959981	0.095310	0.683476	12052.564453
1440.966958	1.374664	0.739397	740.944092
1440.968009	1.802399	0.739397	2635.265137
1440.968928	1.756234	0.739397	4249.244141
1440.969791	1.704375	0.739397	5720.119629
1440.970884	1.645261	0.739397	7518.390137
1440.971874	1.592300	0.739397	9094.766602
1440.972759	1.547922	0.739397	10464.677734
1440.973767	0.631282	0.739397	11101.009766
1440.974839	0.095369	0.739397	11203.245117
1440.975722	0.095215	0.739397	11287.320312
1440.976590	0.095270	0.739397	11370.014648
1440.977693	0.095339	0.739397	11475.173828
1440.978653	0.095200	0.739397	11566.566406
1440.979558	0.095240	0.739397	11652.758789
1440.980443	0.095328	0.739397	11737.124023
1440.981319	0.095270	0.739397	11820.580078
1440.982324	0.095237	0.739397	11916.292969
1440.983240	0.095284	0.739397	12003.573242
1442.023252	1.322699	0.726861	595.214539
1442.024356	1.803025	0.726861	2585.753906
1442.025312	1.756318	0.726861	4264.793945
1442.026179	1.705338	0.726861	5743.322266
1442.027235	1.646627	0.726861	7482.160645
1442.028264	1.592344	0.726861	9120.682617
1442.029173	1.546366	0.726861	10526.329102
1442.030144	0.666713	0.726861	11173.707031
1442.031196	0.095610	0.726861	11274.289062
1442.032109	0.095343	0.726861	11361.336914
1442.032966	0.095273	0.726861	11442.986328
1442.034025	0.095482	0.726861	11544.101562
1442.035029	0.095358	0.726861	11639.840820
1442.035906	0.095303	0.726861	11723.420898
1442.036880	0.095347	0.726861	11816.288086
1442.037922	0.095431	0.726861	11915.727539
1442.038821	0.095303	0.726861	12001.404297
1442.039687	0.095391	0.726861	12084.012695
1443.045325	1.329360	0.773577	578.271790
1443.046204	1.805614	0.773577	2165.406494
1443.047070	1.773164	0.773577	3700.966553
1443.048135	1.713083	0.773577	5525.400391
1443.049033	1.662037	0.773577	7017.910156
1443.049917	1.614639	0.773577	8445.250977
1443.050884	1.565347	0.773577	9958.941406
1443.051866	1.162976	0.773577	11100.984375
1443.052753	0.122443	0.773577	11209.590820
1443.053641	0.095299	0.773577	11294.216797
1443.054717	0.095336	0.773577	11396.797852
1443.055601	0.095288	0.773577	11481.032227
1443.056456	0.095347	0.773577	11562.553711
1443.057458	0.095369	0.773577	11658.113281
1443.058423	0.095277	0.773577	11750.055664
1443.059304	0.095303	0.773577	11834.017578
1443.060161	0.095372	0.773577	11915.751953
1443.061283	0.095365	0.773577	12022.751953
1444.105286	1.317583	0.713809	569.195862
1444.106152	1.803933	0.713809	2131.401855
1444.107250	1.762291	0.713809	4066.397705
1444.108247	1.704016	0.713809	5765.301758
1444.109144	1.654153	0.713809	7249.077148
1444.110143	1.601085	0.713809	8848.561523
1444.111212	1.547468	0.713809	10502.804687
1444.112116	0.727357	0.713809	11160.335937
1444.113004	0.097423	0.713809	11246.847656
1444.114085	0.095361	0.713809	11349.933594
1444.115054	0.095299	0.713809	11442.278320
1444.115917	0.095295	0.713809	11524.518555
1444.116969	0.095387	0.713809	11624.865234
1444.118003	0.095325	0.713809	11723.430664
1444.118880	0.095244	0.713809	11806.959961
1444.119805	0.095409	0.713809	11895.212891
1444.120879	0.095321	0.713809	11997.587891
1444.121812	0.095251	0.713809	12086.457031
1445.121858	1.315012	0.768252	569.400269
1445.122721	1.803658	0.768252	2125.957520
1445.123817	1.762474	0.768252	4057.629395
1445.124807	1.704434	0.768252	5745.018555
1445.125702	1.654871	0.768252	7226.127930
1445.126708	1.601444	0.768252	8837.180664
1445.127744	1.549178	0.768252	10442.129883
1445.128650	0.790309	0.768252	11158.149414
1445.129506	0.098727	0.768252	11242.659180
1445.130612	0.095376	0.768252	11348.144531
1445.131578	0.095233	0.768252	11440.139648
1445.132437	0.095233	0.768252	11521.945312
1445.133502	0.095288	0.768252	11623.426758
1445.134529	0.095262	0.768252	11721.261719
1445.135410	0.095215	0.768252	11805.146484
1445.136328	0.095303	0.768252	11892.634766
1445.137422	0.095310	0.768252	11996.904297
1445.138362	0.095222	0.768252	12086.413086
1446.188229	1.312958	0.660148	568.510742
1446.189099	1.805021	0.660148	2138.878906
1446.190135	1.765415	0.660148	3967.848877
1446.191166	1.705532	0.660148	5726.252441
1446.192064	1.655533	0.660148	7212.921387
1446.193024	1.604392	0.660148	8753.137695
1446.194080	1.549929	0.660148	10389.863281
1446.195023	0.782673	0.660148	11127.923828
1446.195886	0.098192	0.660148	11212.664062
1446.196957	0.095361	0.660148	11314.795898
1446.197952	0.095262	0.660148	11409.582031
1446.198849	0.095211	0.660148	11494.986328
1446.199821	0.095413	0.660148	11587.727539
1446.200857	0.095277	0.660148	11686.434570
1446.201765	0.095240	0.660148	11772.913086
1446.202629	0.095306	0.660148	11855.257812
1446.203694	0.095468	0.660148	11956.930664
1446.204687	0.095295	0.660148	12051.558594
1447.201488	1.322714	0.739224	581.994019
1447.202354	1.804662	0.739224	2144.831055
1447.203421	1.763665	0.739224	4026.661133
1447.204437	1.704628	0.739224	5758.562988
1447.205322	1.654688	0.739224	7222.961426
1447.206300	1.603191	0.739224	8790.881836
1447.207345	1.549750	0.739224	10410.370117
1447.208278	0.783237	0.739224	11141.130859
1447.209134	0.098525	0.739224	11225.468750
1447.210207	0.095317	0.739224	11327.744141
1447.211201	0.095328	0.739224	11422.500977
1447.212076	0.095303	0.739224	11505.890625
1447.213053	0.095372	0.739224	11599.069336
1447.214098	0.095347	0.739224	11698.707031
1447.215015	0.095277	0.739224	11786.076172
1447.215885	0.095292	0.739224	11868.980469
1447.216976	0.095420	0.739224	11973.083984
1447.217962	0.095240	0.739224	12066.991211
1448.269109	1.310794	0.669949	550.533264
1448.270187	1.803061	0.669949	2494.233643
1448.271192	1.755641	0.669949	4258.652832
1448.272085	1.704349	0.669949	5780.636719
1448.273080	1.648879	0.669949	7421.271484
1448.274145	1.593270	0.669949	9118.104492
1448.275040	1.547032	0.669949	10502.698242
1448.275929	0.754633	0.669949	11173.566406
1448.277008	0.095706	0.669949	11276.833008
1448.277961	0.095259	0.669949	11367.614258
1448.278827	0.095310	0.669949	11450.152344
1448.279876	0.095416	0.669949	11550.244141
1448.280915	0.095328	0.669949	11649.290039
1448.281808	0.095317	0.669949	11734.408203
1448.282737	0.095321	0.669949	11822.961914
1448.283792	0.095413	0.669949	11923.622070
1448.284732	0.095339	0.669949	12013.241211
1448.285593	0.095372	0.669949	12095.356445
1449.282231	1.305051	0.758193	549.426636
1449.283308	1.803116	0.758193	2491.383057
1449.284308	1.756326	0.758193	4247.708496
1449.285193	1.704924	0.758193	5756.566406
1449.286179	1.650454	0.758193	7383.914062
1449.287244	1.593644	0.758193	9081.144531
1449.288154	1.547007	0.758193	10488.920898
1449.289019	0.792535	0.758193	11174.463867
1449.290101	0.096266	0.758193	11278.623047
1449.291090	0.095325	0.758193	11372.899414
1449.291970	0.095233	0.758193	11456.704102
1449.292961	0.095361	0.758193	11551.207031
1449.294010	0.095361	0.758193	11651.241211
1449.294906	0.095339	0.758193	11736.665039
1449.295780	0.095361	0.758193	11820.010742
1449.296881	0.095442	0.758193	11925.091797
1449.297846	0.095361	0.758193	12017.115234
1449.298717	0.095292	0.758193	12100.114258
1450.348618	1.329159	0.686562	575.525879
1450.349505	1.805797	0.686562	2177.268066
1450.350526	1.766532	0.686562	3980.897461
1450.351428	1.711952	0.686562	5525.078125
1450.352357	1.660583	0.686562	7067.760254
1450.353223	1.611537	0.686562	8463.351562
1450.354285	1.559656	0.686562	10119.706055
1450.355175	1.129351	0.686562	11124.828125
1450.356047	0.120135	0.686562	11229.585937
1450.357045	0.095372	0.686562	11324.767578
1450.357966	0.095383	0.686562	11412.615234
1450.358879	0.095321	0.686562	11499.643555
1450.359756	0.095413	0.686562	11583.320312
1450.360782	0.095376	0.686562	11681.175781
1450.361667	0.095288	0.686562	11765.505859
1450.362544	0.095306	0.686562	11849.089844
1450.363508	0.095387	0.686562	11941.042969
1450.364473	0.095292	0.686562	12032.999023
1451.363961	1.376532	0.767744	670.371094
1451.364843	1.805761	0.767744	2263.051758
1451.365781	1.767195	0.767744	3920.680664
1451.366842	1.705851	0.767744	5730.588379
1451.367776	1.653102	0.767744	7274.585449
1451.368649	1.606205	0.767744	8676.802734
1451.369692	1.552636	0.767744	10296.201172
1451.370720	0.748557	0.767744	11065.717773
1451.371605	0.097145	0.767744	11151.690430
1451.372577	0.095295	0.767744	11244.317383
1451.373615	0.095376	0.767744	11343.317383
1451.374536	0.095358	0.767744	11431.141602
1451.375397	0.095343	0.767744	11513.232422
1451.376498	0.095457	0.767744	11618.330078
1451.377483	0.095332	0.767744	11712.232422
1451.378372	0.095295	0.767744	11796.950195
1451.379346	0.095394	0.767744	11889.864258
1451.380380	0.095409	0.767744	11988.517578
1452.427154	1.388313	0.714095	692.768188
1452.428039	1.805903	0.714095	2290.992676
1452.428904	1.770198	0.714095	3822.213867
1452.429972	1.709059	0.714095	5647.488770
1452.430920	1.655295	0.714095	7216.708984
1452.431790	1.608256	0.714095	8615.891602
1452.432719	1.560652	0.714095	10065.737305
1452.433791	0.915055	0.714095	11046.675781
1452.434680	0.101184	0.714095	11136.628906
1452.435541	0.095321	0.714095	11218.700195
1452.436571	0.095490	0.714095	11317.054687
1452.437539	0.095244	0.714095	11409.250977
1452.438416	0.095328	0.714095	11492.853516
1452.439292	0.095328	0.714095	11576.361328
1452.440397	0.095288	0.714095	11681.654297
1452.441278	0.095292	0.714095	11765.606445
1452.442138	0.095292	0.714095	11847.557617
1452.443182	0.095427	0.714095	11947.183594
1453.443820	1.365172	0.777565	641.630920
1453.444701	1.805541	0.777565	2232.312256
1453.445687	1.766635	0.777565	3974.213867
1453.446748	1.704459	0.777565	5782.645020
1453.447672	1.652091	0.777565	7309.177246
1453.448536	1.604539	0.777565	8695.498047
1453.449589	1.551551	0.777565	10329.281250
1453.450598	0.738333	0.777565	11074.258789
1453.451487	0.097061	0.777565	11160.545898
1453.452466	0.095446	0.777565	11253.987305
1453.453509	0.095347	0.777565	11353.433594
1453.454416	0.095175	0.777565	11439.756836
1453.455279	0.095332	0.777565	11522.028320
1453.456385	0.095361	0.777565	11627.498047
1453.457355	0.095262	0.777565	11719.902344
1453.458231	0.095288	0.777565	11803.375000
1453.459218	0.095552	0.777565	11897.684570
1453.460276	0.095369	0.777565	11998.584961
1454.507978	1.322406	0.721205	575.246582
1454.508846	1.804010	0.721205	2141.127441
1454.509922	1.763353	0.721205	4038.495605
1454.510851	1.708997	0.721205	5626.153320
1454.511730	1.659269	0.721205	7084.650391
1454.512708	1.607791	0.721205	8657.069336
1454.513734	1.555192	0.721205	10252.696289
1454.514622	1.012914	0.721205	11152.164062
1454.515487	0.107439	0.721205	11245.098633
1454.516534	0.095369	0.721205	11344.949219
1454.517471	0.095284	0.721205	11434.230469
1454.518354	0.095299	0.721205	11518.379883
1454.519308	0.095398	0.721205	11609.389648
1454.520330	0.095266	0.721205	11706.751953
1454.521223	0.095299	0.721205	11791.854492
1454.522082	0.095270	0.721205	11873.691406
1454.523138	0.095435	0.721205	11974.470703
1454.524070	0.095310	0.721205	12063.299805
1455.524921	1.305872	0.760340	549.771973
1455.526003	1.803149	0.760340	2500.779785
1455.527006	1.755436	0.760340	4261.481934
1455.527904	1.703372	0.760340	5791.109375
1455.528881	1.649579	0.760340	7402.748047
1455.529943	1.592860	0.760340	9094.365234
1455.530863	1.546055	0.760340	10516.735352
1455.531738	0.747034	0.760340	11170.389648
1455.532836	0.095709	0.760340	11275.478516
1455.533821	0.095131	0.760340	11369.182617
1455.534700	0.095226	0.760340	11452.885742
1455.535684	0.095314	0.760340	11546.674805
1455.536735	0.095175	0.760340	11646.703125
1455.537612	0.095226	0.760340	11730.215820
1455.538472	0.095332	0.760340	11812.201172
1455.539572	0.095295	0.760340	11917.026367
1455.540529	0.095259	0.760340	12008.189453
1455.541385	0.095186	0.760340	12089.667969
1456.587729	1.327247	0.733435	587.970520
1456.588593	1.804134	0.733435	2146.742676
1456.589661	1.763654	0.733435	4030.324707
1456.590597	1.708674	0.733435	5629.644043
1456.591482	1.659038	0.733435	7097.892578
1456.592453	1.607692	0.733435	8658.960937
1456.593487	1.554518	0.733435	10266.332031
1456.594376	0.997727	0.733435	11153.311523
1456.595242	0.106388	0.733435	11245.443359
1456.596290	0.095339	0.733435	11345.359375
1456.597233	0.095193	0.733435	11435.125977
1456.598106	0.095222	0.733435	11518.254883
1456.599038	0.095369	0.733435	11607.138672
1456.600081	0.095314	0.733435	11706.550781
1456.600970	0.095215	0.733435	11791.197266
1456.601829	0.095215	0.733435	11872.986328
1456.602875	0.095409	0.733435	11972.784180
1456.603821	0.095259	0.733435	12062.899414
1457.605297	1.384369	0.750555	750.327942
1457.606352	1.801743	0.750555	2651.166992
1457.607274	1.754916	0.750555	4269.199219
1457.608140	1.702837	0.750555	5743.855957
1457.609234	1.643749	0.750555	7542.117187
1457.610231	1.590568	0.750555	9127.913086
1457.611117	1.546058	0.750555	10497.720703
1457.612141	0.605735	0.750555	11117.993164
1457.613184	0.095325	0.750555	11217.416992
1457.614067	0.095270	0.750555	11301.540039
1457.614925	0.095361	0.750555	11383.360352
1457.616022	0.095453	0.750555	11488.072266
1457.616999	0.095288	0.750555	11581.168945
1457.617866	0.095204	0.750555	11663.710937
1457.618912	0.095464	0.750555	11763.566406
1457.619947	0.095332	0.750555	11862.235352
1457.620828	0.095273	0.750555	11946.170898
1457.621749	0.095372	0.750555	12034.008789
1458.669946	1.382131	0.658581	657.894531
1458.670827	1.806017	0.658581	2248.995361
1458.671793	1.766561	0.658581	3955.493652
1458.672846	1.704869	0.658581	5750.721191
1458.673783	1.652208	0.658581	7298.840332
1458.674656	1.604432	0.658581	8699.509766
1458.675740	1.550262	0.658581	10379.994141
1458.676740	0.700038	0.658581	11080.032227
1458.677632	0.096471	0.658581	11166.083984
1458.678613	0.095369	0.658581	11259.640625
1458.679670	0.095354	0.658581	11360.429687
1458.680572	0.095237	0.658581	11446.333008
1458.681433	0.095321	0.658581	11528.404297
1458.682520	0.095402	0.658581	11632.105469
1458.683501	0.095182	0.658581	11725.478516
1458.684383	0.095277	0.658581	11809.512695
1458.685380	0.095347	0.658581	11904.573242
1458.686426	0.095321	0.658581	12004.279297
1459.683658	1.318158	0.733822	574.716858
1459.684526	1.803717	0.733822	2140.343262
1459.685581	1.763474	0.733822	4000.808594
1459.686598	1.704492	0.733822	5734.277344
1459.687493	1.654698	0.733822	7215.232422
1459.688487	1.602242	0.733822	8807.861328
1459.689551	1.547878	0.733822	10454.803711
1459.690471	0.748623	0.733822	11143.537109
1459.691333	0.097657	0.733822	11227.717773
1459.692449	0.095380	0.733822	11334.161133
1459.693429	0.095251	0.733822	11427.507812
1459.694294	0.095182	0.733822	11509.839844
1459.695359	0.095336	0.733822	11611.372070
1459.696394	0.095292	0.733822	11709.999023
1459.697281	0.095171	0.733822	11794.416016
1459.698197	0.095398	0.733822	11881.800781
1459.699271	0.095358	0.733822	11984.214844
1459.700213	0.095277	0.733822	12073.965820
1460.748321	1.375159	0.629303	726.083801
1460.749379	1.802172	0.629303	2632.781250
1460.750302	1.755608	0.629303	4253.207031
1460.751169	1.703566	0.629303	5730.198242
1460.752262	1.644228	0.629303	7527.339844
1460.753256	1.591289	0.629303	9109.081055
1460.754152	1.546121	0.629303	10494.405273
1460.755163	0.604248	0.629303	11105.299805
1460.756212	0.095281	0.629303	11205.249023
1460.757098	0.095273	0.629303	11289.661133
1460.757964	0.095222	0.629303	11372.123047
1460.759061	0.095354	0.629303	11476.726562
1460.760027	0.095164	0.629303	11568.654297
1460.760885	0.095303	0.629303	11650.423828
1460.761936	0.095237	0.629303	11750.517578
1460.762972	0.095259	0.629303	11849.206055
1460.763843	0.095281	0.629303	11932.195312
1460.764772	0.095299	0.629303	12020.728516
1461.763403	1.325760	0.748642	579.357361
1461.764276	1.804775	0.748642	2154.926270
1461.765150	1.774021	0.748642	3705.420410
1461.766122	1.719551	0.748642	5376.823730
1461.767039	1.665608	0.748642	6904.186035
1461.767965	1.615822	0.748642	8400.436523
1461.768845	1.569884	0.748642	9781.934570
1461.769837	1.274828	0.748642	11046.563477
1461.770789	0.142866	0.748642	11182.572266
1461.771676	0.095197	0.748642	11267.011719
1461.772651	0.095343	0.748642	11359.970703
1461.773562	0.095332	0.748642	11446.818359
1461.774463	0.095284	0.748642	11532.669922
1461.775349	0.095295	0.748642	11617.101562
1461.776302	0.095240	0.748642	11707.866211
1461.777230	0.095255	0.748642	11796.262695
1461.778122	0.095229	0.748642	11881.207031
1461.779074	0.095358	0.748642	11971.987305
1462.824118	1.301569	0.617488	549.261963
1462.825157	1.803768	0.617488	2423.377197
1462.826183	1.756948	0.617488	4226.005859
1462.827083	1.704525	0.617488	5760.078613
1462.828049	1.651161	0.617488	7355.100098
1462.829107	1.594603	0.617488	9042.190430
1462.830051	1.546066	0.617488	10501.676758
1462.830929	0.767589	0.617488	11175.620117
1462.832002	0.095892	0.617488	11278.512695
1462.832984	0.095229	0.617488	11372.028320
1462.833881	0.095186	0.617488	11457.410156
1462.834872	0.095391	0.617488	11551.942383
1462.835920	0.095380	0.617488	11651.900391
1462.836818	0.095229	0.617488	11737.416016
1462.837676	0.095405	0.617488	11819.273437
1462.838760	0.095526	0.617488	11922.824219
1462.839752	0.095270	0.617488	12017.332031
1462.840635	0.095292	0.617488	12101.474609
1463.846019	1.380784	0.740932	672.441650
1463.846906	1.805596	0.740932	2274.005127
1463.847786	1.769667	0.740932	3831.312012
1463.848729	1.715299	0.740932	5448.838867
1463.849730	1.658459	0.740932	7108.957031
1463.850660	1.609391	0.740932	8605.690430
1463.851528	1.563614	0.740932	9962.908203
1463.852581	1.062451	0.740932	11081.668945
1463.853462	0.111057	0.740932	11179.510742
1463.854338	0.095149	0.740932	11262.861328
1463.855205	0.095284	0.740932	11345.472656
1463.856240	0.095178	0.740932	11443.982422
1463.857127	0.095164	0.740932	11528.392578
1463.858004	0.095219	0.740932	11611.899414
1463.858983	0.095266	0.740932	11705.165039
1463.859924	0.095204	0.740932	11794.751953
1463.860843	0.095259	0.740932	11882.294922
1463.861703	0.095259	0.740932	11964.217773
1464.900916	1.318165	0.655975	552.311279
1464.902030	1.802384	0.655975	2560.166992
1464.902995	1.756124	0.655975	4254.827148
1464.903873	1.704899	0.655975	5751.728027
1464.904915	1.646836	0.655975	7467.730957
1464.905951	1.591860	0.655975	9116.898437
1464.906852	1.545553	0.655975	10509.441406
1464.907808	0.710061	0.655975	11188.259766
1464.908882	0.095530	0.655975	11290.858398
1464.909813	0.095233	0.655975	11379.520508
1464.910678	0.095303	0.655975	11461.957031
1464.911747	0.095376	0.655975	11563.914062
1464.912748	0.095193	0.655975	11659.202148
1464.913642	0.095321	0.655975	11744.418945
1464.914614	0.095383	0.655975	11837.131836
1464.915657	0.095354	0.655975	11936.585937
1464.916562	0.095262	0.655975	12022.798828
1464.917424	0.095398	0.655975	12105.032227
1465.927738	1.301349	0.707420	550.470520
1465.928694	1.801835	0.707420	2273.024414
1465.929632	1.766122	0.707420	3929.646729
1465.930560	1.712842	0.707420	5519.164062
1465.931439	1.662722	0.707420	6980.696777
1465.932474	1.607706	0.707420	8644.672852
1465.933376	1.560930	0.707420	10052.631836
1465.934256	1.219343	0.707420	11125.654297
1465.935195	0.135450	0.707420	11252.841797
1465.936179	0.095229	0.707420	11346.547852
1465.937102	0.095273	0.707420	11434.485352
1465.937957	0.095288	0.707420	11515.957031
1465.938991	0.095391	0.707420	11614.590820
1465.939890	0.095259	0.707420	11700.228516
1465.940766	0.095317	0.707420	11783.726562
1465.941749	0.095402	0.707420	11877.505859
1465.942749	0.095317	0.707420	11972.823242
1465.943643	0.095284	0.707420	12058.007812
1466.983121	1.336663	0.621001	590.804810
1466.983981	1.803051	0.621001	2141.428223
1466.985081	1.761885	0.621001	4079.501465
1466.986046	1.706082	0.621001	5725.870117
1466.986906	1.657401	0.621001	7151.235352
1466.987966	1.600499	0.621001	8847.764648
1466.989022	1.547922	0.621001	10482.371094
1466.989905	0.783666	0.621001	11174.347656
1466.990832	0.098405	0.621001	11265.568359
1466.991905	0.095299	0.621001	11367.824219
1466.992849	0.095204	0.621001	11457.696289
1466.993715	0.095251	0.621001	11540.183594
1466.994749	0.095402	0.621001	11638.829102
1466.995763	0.095259	0.621001	11735.421875
1466.996657	0.095288	0.621001	11820.609375
1466.997607	0.095321	0.621001	11911.164062
1466.998666	0.095339	0.621001	12012.128906
1466.999599	0.095273	0.621001	12101.018555
1468.004791	1.316924	0.652566	557.058716
1468.005837	1.804962	0.652566	2445.049316
1468.006725	1.764320	0.652566	4011.765625
1468.007598	1.713329	0.652566	5507.501953
1468.008582	1.658452	0.652566	7139.418945
1468.009509	1.607714	0.652566	8629.769531
1468.010433	1.561088	0.652566	10072.214844
1468.011314	1.181041	0.652566	11112.711914
1468.012363	0.105927	0.652566	11223.829102
1468.013252	0.095259	0.652566	11308.513672
1468.014125	0.095365	0.652566	11391.767578
1468.015087	0.095383	0.652566	11483.526367
1468.016048	0.095310	0.652566	11575.119141
1468.016968	0.095270	0.652566	11662.767578
1468.017835	0.095310	0.652566	11745.401367
1468.018877	0.095277	0.652566	11844.679687
1468.019744	0.095211	0.652566	11927.227539
1468.020617	0.095336	0.652566	12010.456055
1469.066557	1.308563	0.596565	554.830811
1469.067530	1.802274	0.596565	2308.443604
1469.068583	1.758900	0.596565	4160.565430
1469.069506	1.705195	0.596565	5734.460937
1469.070372	1.654827	0.596565	7167.541016
1469.071478	1.597379	0.596565	8934.242187
1469.072444	1.547845	0.596565	10429.460937
1469.073337	0.821847	0.596565	11163.370117
1469.074352	0.097914	0.596565	11262.752930
1469.075404	0.095295	0.596565	11363.003906
1469.076303	0.095266	0.596565	11448.648437
1469.077187	0.095314	0.596565	11532.906250
1469.078261	0.095442	0.596565	11635.411133
1469.079215	0.095233	0.596565	11726.263672
1469.080073	0.095266	0.596565	11808.001953
1469.081108	0.095387	0.596565	11906.727539
1469.082131	0.095310	0.596565	12004.229492
1469.083011	0.095339	0.596565	12088.127930
1470.082152	1.358815	0.675923	637.284119
1470.083031	1.805281	0.675923	2224.125977
1470.083895	1.771465	0.675923	3754.671631
1470.084966	1.710315	0.675923	5586.418945
1470.085917	1.656647	0.675923	7161.890137
1470.086805	1.608853	0.675923	8590.550781
1470.087779	1.559850	0.675923	10109.844727
1470.088811	0.948193	0.675923	11088.379883
1470.089697	0.103143	0.675923	11179.764648
1470.090551	0.095306	0.675923	11261.156250
1470.091619	0.095427	0.675923	11363.072266
1470.092541	0.095251	0.675923	11450.894531
1470.093415	0.095288	0.675923	11534.176758
1470.094346	0.095453	0.675923	11623.042969
1470.095399	0.095317	0.675923	11723.412109
1470.096290	0.095303	0.675923	11808.327148
1470.097153	0.095284	0.675923	11890.557617
1470.098213	0.095394	0.675923	11991.675781
1471.146683	1.304971	0.599187	550.697632
1471.147736	1.803245	0.599187	2449.514160
1471.148755	1.756545	0.599187	4239.434082
1471.149638	1.704866	0.599187	5744.830566
1471.150626	1.650912	0.599187	7375.931641
1471.151676	1.594512	0.599187	9050.168945
1471.152598	1.547318	0.599187	10476.795898
1471.153464	0.805525	0.599187	11174.380859
1471.154527	0.096281	0.599187	11276.726562
1471.155529	0.095325	0.599187	11372.242187
1471.156420	0.095273	0.599187	11457.130859
1471.157402	0.095295	0.599187	11550.710937
1471.158461	0.095358	0.599187	11651.694336
1471.159358	0.095222	0.599187	11737.108398
1471.160218	0.095427	0.599187	11819.175781
1471.161342	0.095427	0.599187	11926.435547
1471.162302	0.095262	0.599187	12017.887695
1471.163170	0.095292	0.599187	12100.600586
1472.162872	1.300041	0.702139	547.317444
1472.163841	1.801824	0.702139	2293.284668
1472.164888	1.759413	0.702139	4135.390137
1472.165815	1.705510	0.702139	5716.398437
1472.166680	1.655127	0.702139	7148.083008
1472.167767	1.598789	0.702139	8885.966797
1472.168760	1.547871	0.702139	10423.002930
1472.169665	0.805034	0.702139	11151.558594
1472.170667	0.098287	0.702139	11250.042969
1472.171707	0.095339	0.702139	11349.196289
1472.172597	0.095167	0.702139	11433.895508
1472.173453	0.095328	0.702139	11515.497070
1472.174564	0.095317	0.702139	11621.394531
1472.175528	0.095240	0.702139	11713.206055
1472.176385	0.095204	0.702139	11794.795898
1472.177459	0.095442	0.702139	11897.300781
1472.178493	0.095288	0.702139	11995.829102
1472.179370	0.095208	0.702139	12079.326172
1473.222725	1.316909	0.604783	571.538574
1473.223598	1.804742	0.604783	2147.078613
1473.224585	1.769000	0.604783	3893.081787
1473.225547	1.712355	0.604783	5540.367187
1473.226477	1.660280	0.604783	7084.427246
1473.227342	1.612610	0.604783	8479.334961
1473.228350	1.561252	0.604783	10053.077148
1473.229256	1.174783	0.604783	11117.430664
1473.230142	0.123534	0.604783	11226.881836
1473.231053	0.095251	0.604783	11313.656250
1473.232042	0.095244	0.604783	11407.852539
1473.232970	0.095189	0.604783	11496.188477
1473.233848	0.095193	0.604783	11579.767578
1473.234848	0.095244	0.604783	11675.011719
1473.235749	0.095288	0.604783	11760.866211
1473.236670	0.095248	0.604783	11848.589844
1473.237530	0.095255	0.604783	11930.508789
1473.238569	0.095281	0.604783	12029.505859
1474.246207	1.303579	0.678267	550.110352
1474.247250	1.802794	0.678267	2430.424805
1474.248286	1.756366	0.678267	4250.020020
1474.249173	1.704163	0.678267	5761.612305
1474.250103	1.651351	0.678267	7297.369141
1474.251189	1.594420	0.678267	9028.909180
1474.252131	1.546926	0.678267	10486.113281
1474.253008	0.783849	0.678267	11173.548828
1474.254042	0.096365	0.678267	11273.190430
1474.255060	0.095354	0.678267	11370.260742
1474.255953	0.095273	0.678267	11455.339844
1474.256916	0.095409	0.678267	11547.218750
1474.257964	0.095416	0.678267	11647.214844
1474.258894	0.095255	0.678267	11735.801758
1474.259757	0.095394	0.678267	11818.126953
1474.260829	0.095387	0.678267	11920.381836
1474.261827	0.095295	0.678267	12015.486328
1474.262726	0.095325	0.678267	12101.183594
1475.300875	1.381205	0.611014	694.745972
1475.301841	1.805112	0.611014	2438.484375
1475.302723	1.764390	0.611014	3994.676025
1475.303741	1.705796	0.611014	5731.176270
1475.304794	1.647158	0.611014	7465.633789
1475.305694	1.598383	0.611014	8904.177734
1475.306611	1.551577	0.611014	10326.973633
1475.307678	0.673436	0.611014	11045.530273
1475.308625	0.095735	0.611014	11136.191406
1475.309485	0.095266	0.611014	11218.120117
1475.310528	0.095460	0.611014	11317.685547
1475.311556	0.095306	0.611014	11415.660156
1475.312443	0.095310	0.611014	11500.200195
1475.313386	0.095343	0.611014	11590.108398
1475.314444	0.095343	0.611014	11690.981445
1475.315382	0.095321	0.611014	11780.392578
1475.316240	0.095251	0.611014	11862.118164
1475.317264	0.095446	0.611014	11959.854492
1476.325945	1.299305	0.654206	547.007568
1476.326951	1.802457	0.654206	2360.279541
1476.328004	1.758402	0.654206	4211.876953
1476.328881	1.705338	0.654206	5707.458496
1476.329779	1.653512	0.654206	7192.312500
1476.330869	1.597013	0.654206	8933.056641
1476.331831	1.548783	0.654206	10422.986328
1476.332710	0.855146	0.654206	11174.660156
1476.333727	0.097368	0.654206	11273.683594
1476.334762	0.095306	0.654206	11372.326172
1476.335650	0.095255	0.654206	11456.913086
1476.336586	0.095277	0.654206	11546.092773
1476.337639	0.095376	0.654206	11646.523437
1476.338588	0.095240	0.654206	11736.906250
1476.339448	0.095339	0.654206	11818.898437
1476.340498	0.095372	0.654206	11919.039062
1476.341505	0.095281	0.654206	12014.986328
1476.342400	0.095288	0.654206	12100.269531
1477.383596	1.425264	0.573052	766.791870
1477.384638	1.802666	0.573052	2645.169922
1477.385540	1.756589	0.573052	4229.613281
1477.386470	1.702844	0.573052	5813.258301
1477.387530	1.643621	0.573052	7555.496094
1477.388480	1.593333	0.573052	9069.162109
1477.389344	1.548842	0.573052	10407.361328
1477.390420	0.604896	0.573052	11058.229492
1477.391424	0.095251	0.573052	11153.862305
1477.392306	0.095295	0.573052	11237.913086
1477.393270	0.095405	0.573052	11329.883789
1477.394318	0.095387	0.573052	11429.849609
1477.395250	0.095336	0.573052	11518.702148
1477.396106	0.095416	0.573052	11600.378906
1477.397171	0.095533	0.573052	11702.122070
1477.398175	0.095328	0.573052	11797.832031
1477.399048	0.095317	0.573052	11881.043945
1477.400015	0.095442	0.573052	11973.335937
1478.402232	1.299379	0.640240	545.739014
1478.403201	1.801468	0.640240	2291.361816
1478.404265	1.758669	0.640240	4162.585937
1478.405192	1.704503	0.640240	5742.660156
1478.406056	1.654303	0.640240	7171.978027
1478.407146	1.597786	0.640240	8913.564453
1478.408133	1.547238	0.640240	10440.687500
1478.409030	0.798944	0.640240	11157.339844
1478.410035	0.098287	0.640240	11256.118164
1478.411091	0.095303	0.640240	11356.757812
1478.411975	0.095251	0.640240	11440.959961
1478.412880	0.095372	0.640240	11527.271484
1478.413755	0.095325	0.640240	11610.680664
1478.414699	0.095266	0.640240	11700.612305
1478.415646	0.095321	0.640240	11790.880859
1478.416570	0.095306	0.640240	11878.944336
1478.417445	0.095303	0.640240	11962.333984
1478.418415	0.095295	0.640240	12054.770508
1479.465278	1.309255	0.563396	556.433533
1479.466196	1.802278	0.563396	2210.924561
1479.467275	1.760303	0.563396	4110.291016
1479.468229	1.705280	0.563396	5737.127930
1479.469094	1.656083	0.563396	7169.639648
1479.470149	1.600386	0.563396	8858.046875
1479.471172	1.548622	0.563396	10442.287109
1479.472065	0.843702	0.563396	11195.712891
1479.473031	0.099902	0.563396	11292.218750
1479.474082	0.095347	0.563396	11392.427734
1479.475005	0.095160	0.563396	11480.260742
1479.475860	0.095295	0.563396	11561.738281
1479.476895	0.095391	0.563396	11660.467773
1479.477936	0.095299	0.563396	11759.673828
1479.478808	0.095303	0.563396	11842.777344
1479.479783	0.095369	0.563396	11935.761719
1479.480824	0.095376	0.563396	12035.047852
1479.481740	0.095339	0.563396	12122.378906
1480.481745	1.343372	0.640687	595.113586
1480.482674	1.804585	0.640687	2271.572998
1480.483535	1.768619	0.640687	3794.354492
1480.484570	1.710176	0.640687	5564.386719
1480.485466	1.659646	0.640687	7051.429687
1480.486346	1.612738	0.640687	8470.638672
1480.487341	1.562018	0.640687	10024.846680
1480.488291	1.118730	0.640687	11087.640625
1480.489231	0.111046	0.640687	11192.024414
1480.490098	0.095284	0.640687	11274.635742
1480.491152	0.095317	0.640687	11375.100586
1480.492039	0.095306	0.640687	11459.637695
1480.492913	0.095288	0.640687	11542.919922
1480.493903	0.095380	0.640687	11637.345703
1480.494857	0.095299	0.640687	11728.260742
1480.495743	0.095328	0.640687	11812.721680
1480.496651	0.095354	0.640687	11899.302734
1480.497730	0.095328	0.640687	12002.162109
1481.545026	1.311603	0.538448	560.054382
1481.545911	1.802450	0.538448	2155.222656
1481.547011	1.760911	0.538448	4092.224365
1481.547974	1.705206	0.538448	5734.337891
1481.548843	1.655867	0.538448	7173.286133
1481.549884	1.601008	0.538448	8839.935547
1481.550919	1.548479	0.538448	10442.611328
1481.551819	0.804543	0.538448	11166.700195
1481.552766	0.098837	0.538448	11260.298828
1481.553835	0.095369	0.538448	11362.248047
1481.554774	0.095255	0.538448	11451.692383
1481.555631	0.095328	0.538448	11533.388672
1481.556659	0.095468	0.538448	11631.529297
1481.557673	0.095306	0.538448	11728.169922
1481.558563	0.095288	0.538448	11812.976562
1481.559527	0.095317	0.538448	11904.862305
1481.560564	0.095416	0.538448	12003.808594
1481.561480	0.095295	0.538448	12091.099609
1482.562751	1.320055	0.651684	562.343445
1482.563825	1.803017	0.651684	2498.784180
1482.564754	1.759464	0.651684	4133.326172
1482.565636	1.708253	0.651684	5640.005371
1482.566632	1.653516	0.651684	7286.907227
1482.567639	1.598807	0.651684	8896.906250
1482.568528	1.553511	0.651684	10277.977539
1482.569394	1.002429	0.651684	11146.081055
1482.570474	0.099239	0.651684	11253.259766
1482.571379	0.095270	0.651684	11339.478516
1482.572257	0.095262	0.651684	11423.119141
1482.573227	0.095376	0.651684	11515.633789
1482.574234	0.095270	0.651684	11611.570312
1482.575129	0.095229	0.651684	11696.800781
1482.575994	0.095292	0.651684	11779.228516
1482.577056	0.095453	0.651684	11880.599609
1482.577998	0.095325	0.651684	11970.395508
1482.578871	0.095310	0.651684	12053.601562
1483.620622	1.382717	0.574651	696.889526
1483.621504	1.805530	0.574651	2289.366699
1483.622395	1.766975	0.574651	3863.741455
1483.623485	1.705375	0.574651	5722.599609
1483.624447	1.651241	0.574651	7311.093750
1483.625307	1.605201	0.574651	8691.566406
1483.626343	1.552507	0.574651	10299.963867
1483.627387	0.737769	0.574651	11070.194336
1483.628260	0.096998	0.574651	11154.874023
1483.629204	0.095328	0.574651	11244.864258
1483.630269	0.095336	0.574651	11346.396484
1483.631202	0.095222	0.574651	11435.238281
1483.632066	0.095295	0.574651	11517.573242
1483.633103	0.095369	0.574651	11616.470703
1483.634115	0.095361	0.574651	11712.976562
1483.635011	0.095251	0.574651	11798.322266
1483.635968	0.095369	0.574651	11889.589844
1483.637014	0.095350	0.574651	11989.326172
1484.645184	1.306315	0.635482	557.796387
1484.646219	1.802424	0.635482	2423.305664
1484.647259	1.756296	0.635482	4249.854004
1484.648152	1.703906	0.635482	5771.442383
1484.649084	1.651018	0.635482	7310.191406
1484.650150	1.594735	0.635482	9010.178711
1484.651088	1.547109	0.635482	10461.367187
1484.651966	0.808147	0.635482	11170.919922
1484.653009	0.096390	0.635482	11271.455078
1484.654037	0.095248	0.635482	11369.370117
1484.654929	0.095303	0.635482	11454.379883
1484.655895	0.095383	0.635482	11546.520508
1484.656948	0.095380	0.635482	11646.955078
1484.657868	0.095219	0.635482	11734.555664
1484.658726	0.095270	0.635482	11816.296875
1484.659806	0.095376	0.635482	11919.302734
1484.660799	0.095321	0.635482	12013.956055
1484.661694	0.095208	0.635482	12099.166992
1485.699636	1.317770	0.566522	552.145508
1485.700703	1.804944	0.566522	2478.020508
1485.701596	1.762324	0.566522	4051.775879
1485.702474	1.711432	0.566522	5554.413086
1485.703487	1.655793	0.566522	7231.731934
1485.704415	1.604711	0.566522	8720.903320
1485.705342	1.558282	0.566522	10165.431641
1485.706205	1.119005	0.566522	11131.132812
1485.707255	0.104293	0.566522	11240.640625
1485.708133	0.095215	0.566522	11324.239258
1485.709010	0.095240	0.566522	11407.765625
1485.709954	0.095347	0.566522	11497.772461
1485.710905	0.095259	0.566522	11588.363281
1485.711823	0.095270	0.566522	11675.821289
1485.712699	0.095361	0.566522	11759.357422
1485.713745	0.095270	0.566522	11859.009766
1485.714639	0.095145	0.566522	11944.069336
1485.715514	0.095215	0.566522	12027.382812
1486.725964	1.437828	0.609600	818.124329
1486.727013	1.801326	0.609600	2707.714844
1486.727907	1.754850	0.609600	4276.550781
1486.728817	1.700720	0.609600	5824.206055
1486.729900	1.641852	0.609600	7602.331543
1486.730846	1.591432	0.609600	9107.826172
1486.731722	1.547260	0.609600	10463.225586
1486.732762	0.590398	0.609600	11077.239258
1486.733793	0.095284	0.609600	11175.477539
1486.734685	0.095321	0.609600	11260.503906
1486.735634	0.095343	0.609600	11350.984375
1486.736682	0.095431	0.609600	11450.996094
1486.737614	0.095427	0.609600	11539.934570
1486.738476	0.095339	0.609600	11622.117187
1486.739541	0.095413	0.609600	11723.731445
1486.740543	0.095244	0.609600	11819.166016
1486.741431	0.095350	0.609600	11903.836914
1486.742404	0.095365	0.609600	11996.626953
1487.779475	1.387020	0.551057	694.897156
1487.780481	1.804028	0.551057	2509.749512
1487.781375	1.760933	0.551057	4084.023437
1487.782361	1.704382	0.551057	5764.544434
1487.783423	1.644866	0.551057	7511.391602
1487.784337	1.595914	0.551057	8970.057617
1487.785200	1.550621	0.551057	10308.244141
1487.786294	0.650541	0.551057	11019.935547
1487.787254	0.095486	0.551057	11111.601562
1487.788133	0.095303	0.551057	11195.373047
1487.789152	0.095336	0.551057	11292.520508
1487.790198	0.095229	0.551057	11392.130859
1487.791082	0.095240	0.551057	11476.323242
1487.791950	0.095303	0.551057	11559.045898
1487.793041	0.095259	0.551057	11662.973633
1487.793993	0.095262	0.551057	11753.663086
1487.794849	0.095186	0.551057	11835.141602
1487.795901	0.095310	0.551057	11935.408203
1488.804543	1.303224	0.607429	551.263733
1488.805513	1.801252	0.607429	2298.478760
1488.806591	1.757812	0.607429	4193.400391
1488.807495	1.704016	0.607429	5733.831055
1488.808373	1.653527	0.607429	7185.627441
1488.809447	1.597449	0.607429	8901.287109
1488.810441	1.546714	0.607429	10438.720703
1488.811341	0.793385	0.607429	11152.767578
1488.812335	0.097837	0.607429	11250.017578
1488.813372	0.095339	0.607429	11348.884766
1488.814272	0.095284	0.607429	11434.640625
1488.815132	0.095288	0.607429	11516.587891
1488.816231	0.095303	0.607429	11621.325195
1488.817204	0.095248	0.607429	11714.000977
1488.818076	0.095182	0.607429	11797.000000
1488.819122	0.095339	0.607429	11896.724609
1488.820156	0.095354	0.607429	11995.320312
1488.821047	0.095277	0.607429	12080.211914
1489.860199	1.360397	0.539939	635.305298
1489.861084	1.805566	0.539939	2233.231445
1489.862059	1.766360	0.539939	3955.432129
1489.863124	1.704163	0.539939	5770.365234
1489.864057	1.651190	0.539939	7310.925781
1489.864926	1.603169	0.539939	8704.079102
1489.866018	1.549610	0.539939	10396.253906
1489.867007	0.697661	0.539939	11086.241211
1489.867885	0.096727	0.539939	11171.167969
1489.868881	0.095435	0.539939	11266.220703
1489.869930	0.095343	0.539939	11366.235352
1489.870823	0.095248	0.539939	11451.291992
1489.871679	0.095310	0.539939	11532.876953
1489.872783	0.095380	0.539939	11638.175781
1489.873751	0.095288	0.539939	11730.415039
1489.874606	0.095336	0.539939	11811.926758
1489.875663	0.095449	0.539939	11912.816406
1489.876735	0.095343	0.539939	12015.024414
1490.882956	1.381223	0.600504	697.517639
1490.883874	1.805457	0.600504	2354.926758
1490.884738	1.766433	0.600504	3881.125000
1490.885826	1.704265	0.600504	5735.365234
1490.886827	1.648213	0.600504	7385.226562
1490.887727	1.600843	0.600504	8825.985352
1490.888726	1.550559	0.600504	10374.994141
1490.889772	0.653489	0.600504	11058.542969
1490.890674	0.095863	0.600504	11145.011719
1490.891529	0.095350	0.600504	11226.536133
1490.892628	0.095303	0.600504	11331.273437
1490.893618	0.095299	0.600504	11425.619141
1490.894495	0.095361	0.600504	11509.250977
1490.895500	0.095380	0.600504	11605.107422
1490.896546	0.095273	0.600504	11704.763672
1490.897428	0.095226	0.600504	11788.752930
1490.898299	0.095361	0.600504	11871.812500
1490.899385	0.095435	0.600504	11975.454102
1491.940796	1.306849	0.526343	551.490417
1491.941752	1.801798	0.526343	2274.009521
1491.942821	1.758820	0.526343	4154.187500
1491.943761	1.704049	0.526343	5755.993652
1491.944627	1.654135	0.526343	7188.474121
1491.945714	1.597657	0.526343	8925.127930
1491.946710	1.546696	0.526343	10465.636719
1491.947607	0.775734	0.526343	11161.469727
1491.948608	0.098093	0.526343	11259.661133
1491.949643	0.095369	0.526343	11358.368164
1491.950549	0.095237	0.526343	11444.652344
1491.951408	0.095317	0.526343	11526.530273
1491.952486	0.095347	0.526343	11629.314453
1491.953479	0.095255	0.526343	11723.902344
1491.954355	0.095350	0.526343	11807.429687
1491.955343	0.095420	0.526343	11901.704102
1491.956420	0.095391	0.526343	12004.439453
1491.957290	0.095284	0.526343	12087.336914
1492.962335	1.399655	0.578433	715.223511
1492.963346	1.803501	0.578433	2538.562988
1492.964229	1.760706	0.578433	4093.266113
1492.965226	1.703441	0.578433	5791.596680
1492.966281	1.644727	0.578433	7526.783203
1492.967178	1.596596	0.578433	8958.929687
1492.968044	1.549918	0.578433	10301.159180
1492.969150	0.661208	0.578433	11032.456055
1492.970121	0.095442	0.578433	11125.129883
1492.970977	0.095354	0.578433	11206.752930
1492.972041	0.095339	0.578433	11308.194336
1492.973079	0.095336	0.578433	11407.152344
1492.973957	0.095314	0.578433	11490.837891
1492.974873	0.095325	0.578433	11578.155273
1492.975940	0.095372	0.578433	11679.917969
1492.976892	0.095270	0.578433	11770.615234
1492.977757	0.095270	0.578433	11853.023437
1492.978797	0.095442	0.578433	11952.283203
1494.021181	1.315986	0.516067	559.294189
1494.022261	1.802670	0.516067	2506.177246
1494.023262	1.755121	0.516067	4263.053223
1494.024149	1.704064	0.516067	5774.557617
1494.025160	1.647880	0.516067	7440.563965
1494.026212	1.592780	0.516067	9116.167969
1494.027101	1.547003	0.516067	10491.454102
1494.027977	0.763971	0.516067	11160.692383
1494.029063	0.095903	0.516067	11264.843750
1494.030031	0.095310	0.516067	11357.103516
1494.030898	0.095339	0.516067	11439.762695
1494.031919	0.095339	0.516067	11537.104492
1494.032958	0.095358	0.516067	11636.180664
1494.033850	0.095310	0.516067	11721.197266
1494.034762	0.095365	0.516067	11808.169922
1494.035838	0.095365	0.516067	11910.782227
1494.036784	0.095266	0.516067	12000.904297
1494.037654	0.095332	0.516067	12083.842773
1495.041334	1.296522	0.587336	543.242798
1495.042283	1.801432	0.587336	2252.801514
1495.043265	1.764397	0.587336	3985.439453
1495.044198	1.710172	0.587336	5581.030273
1495.045066	1.660972	0.587336	7022.753906
1495.046124	1.605520	0.587336	8721.394531
1495.047015	1.558348	0.587336	10109.882812
1495.047892	1.166034	0.587336	11132.494141
1495.048773	0.126006	0.587336	11243.504883
1495.049830	0.095222	0.587336	11344.154297
1495.050712	0.095284	0.587336	11428.195312
1495.051590	0.095288	0.587336	11511.858398
1495.052570	0.095317	0.587336	11605.269531
1495.053501	0.095336	0.587336	11694.027344
1495.054425	0.095255	0.587336	11782.042969
1495.055290	0.095310	0.587336	11864.486328
1495.056325	0.095262	0.587336	11963.083008
1495.057213	0.095262	0.587336	12047.675781
1496.101056	1.328053	0.503696	567.078552
1496.102160	1.802281	0.503696	2556.797363
1496.103134	1.755516	0.503696	4266.670410
1496.103996	1.704950	0.503696	5736.336914
1496.105073	1.645587	0.503696	7508.634277
1496.106101	1.591062	0.503696	9144.246094
1496.106991	1.545681	0.503696	10519.902344
1496.107942	0.707659	0.503696	11192.885742
1496.108994	0.095537	0.503696	11293.390625
1496.109939	0.095314	0.503696	11383.461914
1496.110796	0.095248	0.503696	11465.088867
1496.111845	0.095292	0.503696	11565.049805
1496.112869	0.095365	0.503696	11662.703125
1496.113743	0.095328	0.503696	11746.020508
1496.114701	0.095332	0.503696	11837.348633
1496.115758	0.095361	0.503696	11938.145508
1496.116684	0.095317	0.503696	12026.409180
1496.117548	0.095339	0.503696	12108.782227
1497.121212	1.306337	0.582530	553.886719
1497.122189	1.801315	0.582530	2313.771240
1497.123147	1.763320	0.582530	4003.032227
1497.124033	1.712014	0.582530	5519.876953
1497.124981	1.658643	0.582530	7092.270020
1497.126040	1.602202	0.582530	8789.001953
1497.126935	1.556506	0.582530	10182.075195
1497.127806	1.107836	0.582530	11147.000000
1497.128854	0.103462	0.582530	11255.427734
1497.129801	0.095299	0.582530	11345.675781
1497.130676	0.095251	0.582530	11429.020508
1497.131601	0.095376	0.582530	11517.243164
1497.132662	0.095339	0.582530	11618.398437
1497.133538	0.095182	0.582530	11701.777344
1497.134403	0.095277	0.582530	11784.192383
1497.135413	0.095409	0.582530	11880.555664
1497.136384	0.095237	0.582530	11973.030273
1497.137262	0.095262	0.582530	12056.670898
1498.179412	1.342258	0.531310	599.989502
1498.180290	1.805244	0.531310	2184.993652
1498.181262	1.767173	0.531310	3902.685547
1498.182330	1.705477	0.531310	5724.135254
1498.183249	1.653772	0.531310	7243.951660
1498.184116	1.604930	0.531310	8635.425781
1498.185226	1.550446	0.531310	10356.419922
1498.186201	0.758599	0.531310	11096.053711
1498.187085	0.097445	0.531310	11182.195312
1498.188097	0.095482	0.531310	11278.823242
1498.189144	0.095317	0.531310	11378.620117
1498.190034	0.095350	0.531310	11463.481445
1498.190914	0.095416	0.531310	11547.447266
1498.191997	0.095435	0.531310	11650.802734
1498.192950	0.095270	0.531310	11741.594727
1498.193808	0.095281	0.531310	11823.345703
1498.194848	0.095442	0.531310	11922.605469
1498.195882	0.095416	0.531310	12021.265625
1499.200854	1.328170	0.579154	601.661072
1499.201952	1.801967	0.579154	2580.220459
1499.202911	1.755110	0.579154	4263.370605
1499.203778	1.703676	0.579154	5740.457031
1499.204832	1.645847	0.579154	7475.179687
1499.205852	1.591846	0.579154	9098.862305
1499.206746	1.546373	0.579154	10481.320312
1499.207711	0.707648	0.579154	11164.200195
1499.208748	0.095739	0.579154	11263.481445
1499.209679	0.095339	0.579154	11352.242187
1499.210543	0.095339	0.579154	11434.615234
1499.211612	0.095347	0.579154	11536.541016
1499.212618	0.095310	0.579154	11632.422852
1499.213494	0.095343	0.579154	11715.943359
1499.214483	0.095321	0.579154	11810.215820
1499.215523	0.095288	0.579154	11909.315430
1499.216428	0.095339	0.579154	11995.597656
1499.217289	0.095343	0.579154	12077.688477
1500.257683	1.368318	0.516724	703.315369
1500.258746	1.801886	0.516724	2618.720215
1500.259673	1.755300	0.516724	4245.883789
1500.260540	1.703437	0.516724	5722.764160
1500.261635	1.643588	0.516724	7522.492676
1500.262625	1.591194	0.516724	9097.774414
1500.263509	1.546849	0.516724	10465.189453
1500.264509	0.645809	0.516724	11110.999023
1500.265557	0.095464	0.516724	11211.044922
1500.266450	0.095259	0.516724	11296.111328
1500.267308	0.095372	0.516724	11377.940430
1500.268392	0.095420	0.516724	11481.375977
1500.269368	0.095244	0.516724	11574.333984
1500.270223	0.095361	0.516724	11655.868164
1500.271290	0.095442	0.516724	11757.705078
1500.272331	0.095350	0.516724	11856.964844
1500.273221	0.095303	0.516724	11941.784180
1500.274142	0.095405	0.516724	12029.652344
1501.281555	1.390038	0.553562	710.309387
1501.282544	1.804292	0.553562	2494.754150
1501.283445	1.761174	0.553562	4081.572266
1501.284433	1.704064	0.553562	5765.187500
1501.285503	1.645239	0.553562	7525.593750
1501.286406	1.596467	0.553562	8967.204102
1501.287297	1.549742	0.553562	10348.024414
1501.288385	0.623533	0.553562	11026.427734
1501.289334	0.095577	0.553562	11117.130859
1501.290192	0.095314	0.553562	11198.910156
1501.291229	0.095387	0.553562	11297.826172
1501.292257	0.095358	0.553562	11395.853516
1501.293137	0.095405	0.553562	11479.810547
1501.294049	0.095343	0.553562	11566.763672
1501.295125	0.095402	0.553562	11669.416016
1501.296075	0.095306	0.553562	11759.957031
1501.296932	0.095251	0.553562	11841.587891
1501.297964	0.095486	0.553562	11940.128906
1502.336564	1.297269	0.489794	544.853149
1502.337554	1.801659	0.489794	2328.495605
1502.338610	1.758040	0.489794	4184.985352
1502.339527	1.704302	0.489794	5747.830078
1502.340400	1.653190	0.489794	7191.064453
1502.341508	1.596152	0.489794	8959.601562
1502.342466	1.547278	0.489794	10441.893555
1502.343360	0.804371	0.489794	11161.001953
1502.344364	0.098145	0.489794	11259.539062
1502.345410	0.095361	0.489794	11359.287109
1502.346309	0.095325	0.489794	11444.984375
1502.347215	0.095328	0.489794	11531.351562
1502.348290	0.095453	0.489794	11633.963867
1502.349248	0.095270	0.489794	11725.232422
1502.350109	0.095306	0.489794	11807.291016
1502.351155	0.095449	0.489794	11907.130859
1502.352185	0.095383	0.489794	12005.375977
1502.353068	0.095226	0.489794	12089.459961
1503.362881	1.306271	0.550408	553.858826
1503.363779	1.801846	0.550408	2171.916260
1503.364889	1.759874	0.550408	4125.376953
1503.365836	1.704445	0.550408	5739.485840
1503.366702	1.655438	0.550408	7173.095703
1503.367754	1.599950	0.550408	8856.243164
1503.368782	1.548288	0.550408	10447.883789
1503.369667	0.816270	0.550408	11170.282227
1503.370619	0.099001	0.550408	11264.531250
1503.371676	0.095376	0.550408	11365.343750
1503.372607	0.095328	0.550408	11454.094727
1503.373474	0.095306	0.550408	11536.725586
1503.374518	0.095391	0.550408	11636.313477
1503.375523	0.095266	0.550408	11732.055664
1503.376415	0.095240	0.550408	11817.009766
1503.377371	0.095369	0.550408	11908.182617
1503.378426	0.095431	0.550408	12008.862305
1503.379344	0.095303	0.550408	12096.350586
1504.415821	1.323684	0.508973	579.773621
1504.416682	1.803951	0.508973	2132.975830
1504.417741	1.763741	0.508973	4000.777832
1504.418759	1.704628	0.508973	5736.088867
1504.419633	1.655101	0.508973	7182.647461
1504.420612	1.603359	0.508973	8752.335937
1504.421673	1.549270	0.508973	10396.111328
1504.422591	0.809901	0.508973	11139.600586
1504.423456	0.098848	0.508973	11225.103516
1504.424533	0.095321	0.508973	11327.764648
1504.425523	0.095186	0.508973	11421.998047
1504.426413	0.095325	0.508973	11506.836914
1504.427400	0.095402	0.508973	11600.998047
1504.428434	0.095358	0.508973	11699.597656
1504.429339	0.095361	0.508973	11785.899414
1504.430201	0.095358	0.508973	11868.097656
1504.431302	0.095427	0.508973	11973.163086
1504.432272	0.095215	0.508973	12065.521484
1505.441797	1.374335	0.566264	685.793030
1505.442677	1.805244	0.566264	2274.407715
1505.443566	1.767136	0.566264	3845.391846
1505.444652	1.705836	0.566264	5697.929687
1505.445610	1.652542	0.566264	7281.064453
1505.446481	1.605579	0.566264	8679.523437
1505.447516	1.552939	0.566264	10286.815430
1505.448553	0.749418	0.566264	11063.961914
1505.449432	0.097141	0.566264	11149.348633
1505.450370	0.095387	0.566264	11238.821289
1505.451442	0.095273	0.566264	11340.954102
1505.452373	0.095284	0.566264	11429.664062
1505.453238	0.095332	0.566264	11512.125977
1505.454274	0.095328	0.566264	11610.885742
1505.455295	0.095237	0.566264	11708.122070
1505.456178	0.095292	0.566264	11792.264648
1505.457134	0.095442	0.566264	11883.506836
1505.458181	0.095416	0.566264	11983.407227
1506.496569	1.311753	0.483993	552.247986
1506.497649	1.802443	0.483993	2498.885986
1506.498655	1.754817	0.483993	4264.231934
1506.499532	1.703998	0.483993	5758.637695
1506.500545	1.648151	0.483993	7428.214355
1506.501588	1.593084	0.483993	9089.800781
1506.502494	1.546531	0.483993	10490.958008
1506.503361	0.774719	0.483993	11162.639648
1506.504457	0.096039	0.483993	11267.898437
1506.505407	0.095281	0.483993	11358.415039
1506.506309	0.095262	0.483993	11444.341797
1506.507221	0.095336	0.483993	11531.288086
1506.508085	0.095328	0.483993	11613.651367
1506.509054	0.095321	0.483993	11706.017578
1506.509971	0.095284	0.483993	11793.393555
1506.510831	0.095284	0.483993	11875.337891
1506.511864	0.095284	0.483993	11973.766602
1506.512751	0.095248	0.483993	12058.250977
1507.519425	1.308545	0.572806	558.748657
1507.520427	1.801670	0.572806	2364.021973
1507.521477	1.757256	0.572806	4209.140625
1507.522378	1.704137	0.572806	5744.567871
1507.523243	1.653329	0.572806	7174.697266
1507.524346	1.596958	0.572806	8936.141602
1507.525321	1.547988	0.572806	10445.429687
1507.526186	0.845702	0.572806	11176.961914
1507.527285	0.096478	0.572806	11282.991211
1507.528327	0.095233	0.572806	11382.224609
1507.529202	0.095090	0.572806	11465.428711
1507.530138	0.095156	0.572806	11554.495117
1507.531199	0.095219	0.572806	11655.521484
1507.532142	0.095138	0.572806	11745.236328
1507.533006	0.095240	0.572806	11827.524414
1507.534042	0.095336	0.572806	11926.291992
1507.535061	0.095266	0.572806	12023.368164
1507.535948	0.095226	0.572806	12107.833008
1508.577570	1.408169	0.478769	720.982483
1508.578543	1.804629	0.478769	2476.886475
1508.579407	1.763657	0.478769	4000.686279
1508.580495	1.700922	0.478769	5851.289062
1508.581534	1.643090	0.478769	7558.458984
1508.582424	1.595405	0.478769	8978.369141
1508.583355	1.548549	0.478769	10420.068359
1508.584426	0.592983	0.478769	11055.153320
1508.585359	0.095336	0.478769	11144.101562
1508.586217	0.095310	0.478769	11225.877930
1508.587260	0.095372	0.478769	11325.351562
1508.588273	0.095306	0.478769	11421.896484
1508.589142	0.095211	0.478769	11504.634766
1508.590052	0.095288	0.478769	11591.346680
1508.590927	0.095292	0.478769	11674.726562
1508.591900	0.095299	0.478769	11767.452148
1508.592825	0.095328	0.478769	11855.630859
1508.593715	0.095270	0.478769	11940.420898
1509.596358	1.338999	0.540116	578.447571
1509.597466	1.802051	0.540116	2575.119873
1509.598442	1.754637	0.540116	4287.645996
1509.599315	1.703496	0.540116	5774.797852
1509.600411	1.642804	0.540116	7575.311035
1509.601447	1.588206	0.540116	9220.692383
1509.602345	1.542561	0.540116	10605.912109
1509.603287	0.631271	0.540116	11200.569336
1509.604351	0.095347	0.540116	11302.018555
1509.605288	0.095259	0.540116	11391.276367
1509.606145	0.095215	0.540116	11472.875000
1509.607217	0.095339	0.540116	11575.079102
1509.608224	0.095237	0.540116	11670.982422
1509.609098	0.095248	0.540116	11754.228516
1509.610069	0.095343	0.540116	11846.806641
1509.611115	0.095365	0.540116	11946.558594
1509.612029	0.095284	0.540116	12033.648437
1509.612890	0.095240	0.540116	12115.650391
1510.659184	1.373280	0.455691	648.188171
1510.660071	1.805424	0.455691	2249.598877
1510.661096	1.763489	0.455691	4057.174805
1510.662009	1.708564	0.455691	5617.094238
1510.662922	1.656859	0.455691	7129.806641
1510.663803	1.608717	0.455691	8547.085937
1510.664830	1.557052	0.455691	10146.178711
1510.665738	1.091005	0.455691	11136.810547
1510.666614	0.112976	0.455691	11235.777344
1510.667595	0.095233	0.455691	11329.201172
1510.668548	0.095259	0.455691	11419.982422
1510.669476	0.095189	0.455691	11508.318359
1510.670342	0.095281	0.455691	11590.831055
1510.671367	0.095266	0.455691	11688.478516
1510.672250	0.095259	0.455691	11772.591797
1510.673125	0.095328	0.455691	11856.003906
1510.674071	0.095317	0.455691	11946.173828
1510.675034	0.095266	0.455691	12037.915039
1511.675092	1.337553	0.548668	589.860657
1511.675958	1.804145	0.548668	2152.250732
1511.677010	1.763134	0.548668	4007.067383
1511.678019	1.704474	0.548668	5726.881348
1511.678903	1.654739	0.548668	7189.670410
1511.679895	1.603308	0.548668	8780.152344
1511.680931	1.549468	0.548668	10385.400391
1511.681867	0.800208	0.548668	11134.394531
1511.682725	0.098690	0.548668	11219.070312
1511.683812	0.095479	0.548668	11322.855469
1511.684810	0.095215	0.548668	11417.879883
1511.685684	0.095317	0.548668	11501.187500
1511.686661	0.095413	0.548668	11594.405273
1511.687712	0.095299	0.548668	11694.564453
1511.688613	0.095262	0.548668	11780.395508
1511.689477	0.095361	0.548668	11862.788086
1511.690581	0.095409	0.548668	11968.119141
1511.691554	0.095233	0.548668	12060.781250
1512.737293	1.382534	0.472066	695.414673
1512.738232	1.805153	0.472066	2390.452881
1512.739094	1.766353	0.472066	3913.048828
1512.740136	1.706027	0.472066	5690.728516
1512.741159	1.648993	0.472066	7377.648437
1512.742048	1.601671	0.472066	8801.534180
1512.743003	1.553214	0.472066	10284.853516
1512.744075	0.706710	0.472066	11042.447266
1512.744995	0.096160	0.472066	11130.914062
1512.745852	0.095273	0.472066	11212.563477
1512.746920	0.095361	0.472066	11314.409180
1512.747944	0.095266	0.472066	11411.961914
1512.748821	0.095277	0.472066	11495.519531
1512.749787	0.095402	0.472066	11587.677734
1512.750847	0.095281	0.472066	11688.675781
1512.751749	0.095219	0.472066	11774.562500
1512.752615	0.095189	0.472066	11856.996094
1512.753673	0.095479	0.472066	11958.012695
1513.757198	1.377433	0.532055	696.981079
1513.758139	1.804878	0.532055	2395.371094
1513.759006	1.765796	0.532055	3926.315918
1513.760045	1.705767	0.532055	5698.607422
1513.761071	1.648455	0.532055	7389.921875
1513.761978	1.599950	0.532055	8841.076172
1513.762925	1.551793	0.532055	10310.624023
1513.763970	0.689315	0.532055	11030.958008
1513.764899	0.092651	0.532055	11117.031250
1513.765762	0.095303	0.532055	11199.277344
1513.766827	0.095383	0.532055	11300.860352
1513.767837	0.095204	0.532055	11397.016602
1513.768714	0.095321	0.532055	11480.613281
1513.769675	0.095350	0.532055	11572.245117
1513.770715	0.095347	0.532055	11671.405273
1513.771630	0.095266	0.532055	11758.574219
1513.772493	0.095226	0.532055	11840.753906
1513.773549	0.095413	0.532055	11941.509766
1514.814428	1.352977	0.473790	616.957642
1514.815306	1.804999	0.473790	2201.746582
1514.816283	1.766250	0.473790	3927.372803
1514.817332	1.705214	0.473790	5716.141602
1514.818261	1.652736	0.473790	7251.533203
1514.819128	1.604817	0.473790	8642.909180
1514.820234	1.550251	0.473790	10357.487305
1514.821219	0.747704	0.473790	11093.975586
1514.822098	0.097357	0.473790	11179.552734
1514.823088	0.095365	0.473790	11273.963867
1514.824143	0.095369	0.473790	11374.578125
1514.825036	0.095321	0.473790	11459.700195
1514.825911	0.095332	0.473790	11543.115234
1514.827004	0.095446	0.473790	11647.437500
1514.827969	0.095237	0.473790	11739.340820
1514.828833	0.095321	0.473790	11821.698242
1514.829862	0.095394	0.473790	11919.859375
1514.830899	0.095314	0.473790	12018.699219
1515.839188	1.325383	0.504981	603.049377
1515.840270	1.801725	0.504981	2552.515625
1515.841226	1.755828	0.504981	4231.086914
1515.842092	1.705148	0.504981	5707.744629
1515.843116	1.647817	0.504981	7395.109375
1515.844155	1.592904	0.504981	9050.136719
1515.845053	1.547377	0.504981	10439.680664
1515.846004	0.752955	0.504981	11155.741211
1515.847065	0.095665	0.504981	11257.242187
1515.848011	0.095303	0.504981	11347.398437
1515.848873	0.095281	0.504981	11429.530273
1515.849946	0.095343	0.504981	11531.833008
1515.850954	0.095314	0.504981	11627.909180
1515.851839	0.095262	0.504981	11712.216797
1515.852807	0.095343	0.504981	11804.508789
1515.853847	0.095266	0.504981	11903.585937
1515.854758	0.095233	0.504981	11990.343750
1515.855618	0.095273	0.504981	12072.279297
1516.892710	1.380923	0.456637	736.031860
1516.893768	1.801296	0.456637	2641.803223
1516.894691	1.754231	0.456637	4260.958008
1516.895555	1.702595	0.456637	5732.000000
1516.896634	1.643855	0.456637	7505.719727
1516.897629	1.591121	0.456637	9088.884766
1516.898517	1.546359	0.456637	10462.050781
1516.899529	0.631480	0.456637	11101.108398
1516.900565	0.095336	0.456637	11199.875977
1516.901452	0.095237	0.456637	11284.350586
1516.902306	0.095317	0.456637	11365.751953
1516.903414	0.095328	0.456637	11471.375977
1516.904373	0.095292	0.456637	11562.760742
1516.905231	0.095237	0.456637	11644.473633
1516.906315	0.095482	0.456637	11747.976562
1516.907358	0.095262	0.456637	11847.334961
1516.908251	0.095306	0.456637	11932.443359
1516.909170	0.095314	0.456637	12020.037109
1517.918649	1.304106	0.523713	546.420532
1517.919704	1.802604	0.523713	2448.167480
1517.920725	1.755157	0.523713	4240.183105
1517.921620	1.703324	0.523713	5764.658203
1517.922585	1.649681	0.523713	7356.600586
1517.923641	1.592007	0.523713	9037.759766
1517.924569	1.546461	0.523713	10472.875977
1517.925439	0.794773	0.523713	11164.328125
1517.926523	0.096064	0.523713	11268.461914
1517.927505	0.095222	0.523713	11361.969727
1517.928393	0.095299	0.523713	11446.595703
1517.929392	0.095420	0.523713	11541.919922
1517.930444	0.095332	0.523713	11642.208984
1517.931336	0.095211	0.523713	11727.137695
1517.932193	0.095321	0.523713	11808.828125
1517.933293	0.095449	0.523713	11913.822266
1517.934261	0.095299	0.523713	12006.071289
1517.935116	0.095303	0.523713	12087.554687
1518.972225	1.303206	0.483538	552.559204
1518.973145	1.801505	0.483538	2209.943848
1518.974125	1.763983	0.483538	3938.647461
1518.975050	1.710568	0.483538	5520.922363
1518.975947	1.660854	0.483538	7010.708984
1518.976946	1.607816	0.483538	8616.916992
1518.977871	1.558674	0.483538	10058.690430
1518.978803	1.134448	0.483538	11115.996094
1518.979668	0.119550	0.483538	11219.406250
1518.980714	0.095189	0.483538	11318.974609
1518.981598	0.095266	0.483538	11403.189453
1518.982473	0.095219	0.483538	11486.505859
1518.983471	0.095405	0.483538	11581.720703
1518.984395	0.095277	0.483538	11669.756836
1518.985317	0.095273	0.483538	11757.598633
1518.986174	0.095277	0.483538	11839.250977
1518.987197	0.095288	0.483538	11936.730469
1518.988096	0.095229	0.483538	12022.341797
1519.996096	1.433712	0.509658	779.939392
1519.997126	1.801802	0.509658	2635.795166
1519.998016	1.757179	0.509658	4199.684570
1519.998985	1.701746	0.509658	5848.675781
1520.000034	1.642712	0.509658	7571.880859
1520.000969	1.593120	0.509658	9061.448242
1520.001830	1.547827	0.509658	10394.126953
1520.002920	0.598810	0.509658	11046.830078
1520.003920	0.095321	0.509658	11142.151367
1520.004799	0.095343	0.509658	11225.958008
1520.005774	0.095369	0.509658	11318.942383
1520.006810	0.095457	0.509658	11417.834961
1520.007731	0.095332	0.509658	11505.635742
1520.008594	0.095343	0.509658	11587.916992
1520.009673	0.095387	0.509658	11690.839844
1520.010655	0.095350	0.509658	11784.473633
1520.011546	0.095424	0.509658	11869.496094
1520.012531	0.095420	0.509658	11963.484375
1521.054283	1.327251	0.439090	581.335937
1521.055158	1.804387	0.439090	2160.174805
1521.056168	1.766506	0.439090	3944.346191
1521.057167	1.707213	0.439090	5649.852051
1521.058061	1.657017	0.439090	7131.225098
1521.058926	1.608878	0.439090	8522.904297
1521.060012	1.555514	0.439090	10212.192383
1521.060923	1.010588	0.439090	11132.838867
1521.061797	0.106769	0.439090	11226.155273
1521.062779	0.095376	0.439090	11319.814453
1521.063787	0.095237	0.439090	11415.813477
1521.064678	0.095343	0.439090	11500.763672
1521.065539	0.095383	0.439090	11582.888672
1521.066627	0.095332	0.439090	11686.610352
1521.067560	0.095343	0.439090	11775.565430
1521.068441	0.095299	0.439090	11859.523437
1521.069420	0.095427	0.439090	11952.946289
1521.070426	0.095314	0.439090	12048.832031
1522.072992	1.410048	0.523773	720.534302
1522.073953	1.804244	0.523773	2454.413086
1522.074822	1.763474	0.523773	3986.872070
1522.075872	1.702950	0.523773	5774.970215
1522.076907	1.645426	0.523773	7477.986328
1522.077795	1.597797	0.523773	8896.830078
1522.078759	1.549871	0.523773	10390.905273
1522.079825	0.637028	0.523773	11069.976562
1522.080744	0.095559	0.523773	11157.794922
1522.081602	0.095365	0.523773	11239.618164
1522.082647	0.095303	0.523773	11339.209961
1522.083672	0.095387	0.523773	11436.981445
1522.084550	0.095259	0.523773	11520.619141
1522.085513	0.095420	0.523773	11612.508789
1522.086563	0.095325	0.523773	11712.599609
1522.087483	0.095284	0.523773	11800.261719
1522.088350	0.095310	0.523773	11882.895508
1522.089425	0.095413	0.523773	11985.463867
1523.135415	1.319645	0.444395	559.529419
1523.136519	1.802611	0.444395	2549.611816
1523.137440	1.757809	0.444395	4168.553711
1523.138312	1.705232	0.444395	5655.516113
1523.139422	1.645137	0.444395	7481.618164
1523.140414	1.593175	0.444395	9062.047852
1523.141287	1.548622	0.444395	10413.995117
1523.142340	0.618805	0.444395	11065.596680
1523.143376	0.095240	0.444395	11164.265625
1523.144269	0.095197	0.444395	11249.276367
1523.145186	0.095350	0.444395	11336.712891
1523.146264	0.095354	0.444395	11439.504883
1523.147210	0.095284	0.444395	11529.643555
1523.148073	0.095284	0.444395	11611.874023
1523.149110	0.095354	0.444395	11710.755859
1523.150124	0.095325	0.444395	11807.415039
1523.151012	0.095306	0.444395	11892.046875
1523.151946	0.095420	0.444395	11981.168945
1524.152841	1.380919	0.513203	690.459595
1524.153786	1.804691	0.513203	2395.892578
1524.154653	1.765426	0.513203	3926.516846
1524.155717	1.703862	0.513203	5739.426270
1524.156726	1.647539	0.513203	7401.792969
1524.157622	1.599899	0.513203	8835.302734
1524.158594	1.551409	0.513203	10343.271484
1524.159650	0.683123	0.513203	11064.648437
1524.160579	0.096075	0.513203	11153.902344
1524.161437	0.095288	0.513203	11235.659180
1524.162515	0.095372	0.513203	11338.470703
1524.163511	0.095299	0.513203	11433.388672
1524.164388	0.095273	0.513203	11516.943359
1524.165358	0.095343	0.513203	11609.425781
1524.166412	0.095314	0.513203	11709.886719
1524.167312	0.095284	0.513203	11795.642578
1524.168184	0.095281	0.513203	11878.727539
1524.169268	0.095482	0.513203	11982.230469
1525.214397	1.303788	0.434175	551.502258
1525.215428	1.801597	0.434175	2408.948486
1525.216485	1.755366	0.434175	4264.370605
1525.217369	1.703335	0.434175	5770.118652
1525.218281	1.650916	0.434175	7275.753418
1525.219372	1.594288	0.434175	9015.122070
1525.220315	1.546212	0.434175	10473.200195
1525.221196	0.787430	0.434175	11166.926758
1525.222226	0.096431	0.434175	11266.250000
1525.223244	0.095347	0.434175	11363.312500
1525.224130	0.095244	0.434175	11447.699219
1525.225080	0.095416	0.434175	11538.344727
1525.226129	0.095365	0.434175	11638.382812
1525.227068	0.095299	0.434175	11727.868164
1525.227936	0.095226	0.434175	11810.524414
1525.229001	0.095402	0.434175	11912.126953
1525.229997	0.095266	0.434175	12007.011719
1525.230890	0.095208	0.434175	12092.032227
1526.233668	1.312881	0.515088	571.103210
1526.234531	1.803340	0.515088	2127.385498
1526.235624	1.761467	0.515088	4052.669189
1526.236622	1.703174	0.515088	5752.436523
1526.237514	1.653336	0.515088	7227.212402
1526.238484	1.602103	0.515088	8781.252930
1526.239530	1.549146	0.515088	10401.659180
1526.240447	0.806536	0.515088	11141.251953
1526.241307	0.098950	0.515088	11226.349609
1526.242391	0.095310	0.515088	11329.666016
1526.243381	0.095273	0.515088	11423.986328
1526.244258	0.095208	0.515088	11507.483398
1526.245256	0.095398	0.515088	11602.690430
1526.246303	0.095321	0.515088	11702.491211
1526.247195	0.095248	0.515088	11787.452148
1526.248052	0.095358	0.515088	11869.173828
1526.249172	0.095365	0.515088	11975.982422
1526.250128	0.095295	0.515088	12067.084961
1527.292457	1.406938	0.422840	733.014954
1527.293403	1.804460	0.422840	2440.034424
1527.294267	1.764265	0.422840	3964.359375
1527.295308	1.704606	0.422840	5738.854004
1527.296343	1.646953	0.422840	7443.450195
1527.297227	1.599243	0.422840	8857.181641
1527.298168	1.551350	0.422840	10317.001953
1527.299252	0.674421	0.422840	11048.075195
1527.300191	0.095709	0.422840	11137.946289
1527.301046	0.095226	0.422840	11219.364258
1527.302078	0.095420	0.422840	11317.837891
1527.303103	0.095262	0.422840	11415.481445
1527.303994	0.095277	0.422840	11500.373047
1527.304948	0.095438	0.422840	11591.420898
1527.305990	0.095295	0.422840	11690.718750
1527.306918	0.095197	0.422840	11779.061523
1527.307784	0.095288	0.422840	11861.581055
1527.308845	0.095380	0.422840	11962.779297
1528.315098	1.458735	0.474003	851.901428
1528.316152	1.800381	0.474003	2749.502930
1528.317036	1.753326	0.474003	4299.443359
1528.317913	1.700841	0.474003	5791.081055
1528.319010	1.642094	0.474003	7592.457520
1528.319962	1.591406	0.474003	9107.476562
1528.320828	1.547758	0.474003	10447.834961
1528.321878	0.620482	0.474003	11099.340820
1528.322914	0.095281	0.474003	11198.051758
1528.323785	0.095215	0.474003	11280.984375
1528.324717	0.095387	0.474003	11369.884766
1528.325783	0.095295	0.474003	11471.469727
1528.326727	0.095197	0.474003	11561.334961
1528.327596	0.095295	0.474003	11644.146484
1528.328631	0.095328	0.474003	11742.811523
1528.329649	0.095270	0.474003	11839.795898
1528.330539	0.095219	0.474003	11924.540039
1528.331495	0.095347	0.474003	12015.691406
1529.369687	1.352421	0.442699	607.236816
1529.370574	1.804753	0.442699	2208.053223
1529.371566	1.765338	0.442699	3959.268555
1529.372622	1.704309	0.442699	5759.019043
1529.373535	1.652780	0.442699	7268.006836
1529.374400	1.603883	0.442699	8655.365234
1529.375516	1.549021	0.442699	10384.072266
1529.376501	0.741053	0.442699	11114.009766
1529.377374	0.097178	0.442699	11198.845703
1529.378455	0.095376	0.442699	11301.947266
1529.379483	0.095350	0.442699	11399.967773
1529.380374	0.095262	0.442699	11484.846680
1529.381315	0.095391	0.442699	11574.609375
1529.382360	0.095325	0.442699	11674.223633
1529.383304	0.095266	0.442699	11764.155273
1529.384164	0.095273	0.442699	11846.090820
1529.385222	0.095380	0.442699	11947.002930
1529.386234	0.095244	0.442699	12043.389648
1530.393925	1.309054	0.502387	565.511292
1530.394790	1.804017	0.502387	2125.986328
1530.395815	1.766074	0.502387	3936.212402
1530.396721	1.711945	0.502387	5487.234375
1530.397654	1.660437	0.502387	7036.421875
1530.398516	1.611544	0.502387	8425.573242
1530.399550	1.559454	0.502387	10038.048828
1530.400448	1.174365	0.502387	11092.628906
1530.401336	0.124977	0.502387	11203.608398
1530.402320	0.095339	0.502387	11297.421875
1530.403266	0.095200	0.502387	11387.481445
1530.404190	0.095255	0.502387	11475.497070
1530.405050	0.095376	0.502387	11557.520508
1530.406077	0.095251	0.502387	11655.343750
1530.406963	0.095310	0.502387	11739.788086
1530.407836	0.095314	0.502387	11822.997070
1530.408800	0.095391	0.502387	11914.954102
1530.409768	0.095255	0.502387	12007.161133
1531.448738	1.400449	0.418992	729.634033
1531.449683	1.804944	0.418992	2435.305908
1531.450551	1.764283	0.418992	3966.703857
1531.451597	1.703379	0.418992	5748.438477
1531.452622	1.646422	0.418992	7436.020996
1531.453519	1.598514	0.418992	8869.888672
1531.454475	1.550402	0.418992	10352.072266
1531.455535	0.650134	0.418992	11041.214844
1531.456468	0.095577	0.418992	11130.388672
1531.457332	0.095288	0.418992	11212.717773
1531.458407	0.095398	0.418992	11315.270508
1531.459406	0.095350	0.418992	11410.525391
1531.460295	0.095244	0.418992	11495.197266
1531.461252	0.095457	0.418992	11586.548828
1531.462302	0.095413	0.418992	11686.732422
1531.463226	0.095354	0.418992	11774.839844
1531.464090	0.095427	0.418992	11857.289062
1531.465167	0.095420	0.418992	11960.056641
1532.474908	1.366560	0.474337	710.611206
1532.475915	1.803336	0.474337	2526.570801
1532.476803	1.760409	0.474337	4089.813965
1532.477665	1.708901	0.474337	5562.886719
1532.478736	1.650450	0.474337	7330.519043
1532.479669	1.600199	0.474337	8823.504883
1532.480540	1.555107	0.474337	10178.003906
1532.481502	0.937679	0.474337	11080.051758
1532.482534	0.097841	0.474337	11181.023437
1532.483426	0.095292	0.474337	11266.023437
1532.484290	0.095295	0.474337	11348.358398
1532.485328	0.095405	0.474337	11447.388672
1532.486265	0.095325	0.474337	11536.708008
1532.487145	0.095259	0.474337	11620.536133
1532.488073	0.095453	0.474337	11709.116211
1532.489107	0.095306	0.474337	11807.663086
1532.489988	0.095233	0.474337	11891.563477
1532.490849	0.095240	0.474337	11973.565430
1533.527095	1.303348	0.452778	551.316406
1533.528131	1.802970	0.452778	2419.193359
1533.529149	1.756637	0.452778	4207.449707
1533.530045	1.703862	0.452778	5734.110352
1533.531014	1.650597	0.452778	7333.539062
1533.532077	1.593900	0.452778	9027.855469
1533.532998	1.546564	0.452778	10452.240234
1533.533866	0.824465	0.452778	11167.875977
1533.534946	0.096420	0.452778	11272.008789
1533.535937	0.095237	0.452778	11366.388672
1533.536816	0.095284	0.452778	11450.143555
1533.537806	0.095387	0.452778	11544.576172
1533.538848	0.095325	0.452778	11643.904297
1533.539750	0.095255	0.452778	11729.824219
1533.540605	0.095240	0.452778	11811.254883
1533.541686	0.095398	0.452778	11914.379883
1533.542670	0.095189	0.452778	12008.045898
1533.543564	0.095233	0.452778	12093.184570
1534.554566	1.439224	0.485367	798.769104
1534.555602	1.801776	0.485367	2665.409180
1534.556494	1.755908	0.485367	4231.679199
1534.557437	1.701270	0.485367	5835.976562
1534.558516	1.641551	0.485367	7607.210449
1534.559462	1.591289	0.485367	9112.570312
1534.560323	1.546996	0.485367	10444.534180
1534.561376	0.589805	0.485367	11065.598633
1534.562405	0.095288	0.485367	11163.650391
1534.563297	0.095372	0.485367	11248.722656
1534.564267	0.095358	0.485367	11341.219727
1534.565322	0.095354	0.485367	11441.818359
1534.566247	0.095303	0.485367	11529.973633
1534.567114	0.095336	0.485367	11612.629883
1534.568186	0.095372	0.485367	11714.869141
1534.569177	0.095314	0.485367	11809.325195
1534.570070	0.095295	0.485367	11894.423828
1534.571059	0.095372	0.485367	11988.747070
1535.606645	1.370896	0.429732	656.659180
1535.607524	1.805167	0.429732	2243.401123
1535.608520	1.764899	0.429732	4001.240234
1535.609443	1.709707	0.429732	5579.299805
1535.610357	1.658210	0.429732	7094.904297
1535.611234	1.610153	0.429732	8507.007812
1535.612265	1.558411	0.429732	10113.729492
1535.613169	1.119778	0.429732	11126.008789
1535.614053	0.115576	0.429732	11228.177734
1535.615017	0.095314	0.429732	11320.060547
1535.615971	0.095295	0.429732	11410.972656
1535.616889	0.095295	0.429732	11498.454102
1535.617754	0.095314	0.429732	11580.900391
1535.618781	0.095409	0.429732	11678.885742
1535.619665	0.095325	0.429732	11763.152344
1535.620543	0.095303	0.429732	11846.828125
1535.621442	0.095427	0.429732	11932.617187
1535.622457	0.095292	0.429732	12029.337891
1536.634404	1.413190	0.477347	726.379517
1536.635438	1.802267	0.477347	2589.923340
1536.636328	1.758215	0.477347	4154.734863
1536.637279	1.703265	0.477347	5774.540039
1536.638342	1.644397	0.477347	7522.534180
1536.639278	1.594182	0.477347	9014.688477
1536.640141	1.549182	0.477347	10351.632812
1536.641219	0.659337	0.477347	11062.398437
1536.642219	0.095446	0.477347	11157.843750
1536.643089	0.095240	0.477347	11240.703125
1536.644043	0.095369	0.477347	11331.684570
1536.645088	0.095332	0.477347	11431.306641
1536.646007	0.095164	0.477347	11518.761719
1536.646871	0.095336	0.477347	11601.131836
1536.647954	0.095431	0.477347	11704.483398
1536.648954	0.095314	0.477347	11799.796875
1536.649845	0.095347	0.477347	11884.750977
1536.650820	0.095515	0.477347	11977.877930
1537.685366	1.375389	0.446623	647.808411
1537.686252	1.803267	0.446623	2245.502441
1537.687129	1.757926	0.446623	3787.203613
1537.688092	1.710088	0.446623	5434.018555
1537.689049	1.659737	0.446623	7022.387207
1537.689943	1.611504	0.446623	8463.072266
1537.690881	1.563120	0.446623	9929.279297
1537.691943	1.047224	0.446623	11041.431641
1537.692843	0.107249	0.446623	11137.955078
1537.693704	0.095204	0.446623	11219.925781
1537.694750	0.095336	0.446623	11319.646484
1537.695706	0.095262	0.446623	11410.717773
1537.696581	0.095200	0.446623	11494.017578
1537.697465	0.095310	0.446623	11578.271484
1537.698563	0.095325	0.446623	11682.938477
1537.699440	0.095160	0.446623	11766.393555
1537.700300	0.095182	0.446623	11848.250000
1537.701333	0.095321	0.446623	11946.716797
1538.714270	1.403606	0.471683	718.646240
1538.715298	1.802549	0.471683	2571.666504
1538.716181	1.758875	0.471683	4124.752930
1538.717154	1.703386	0.471683	5782.147461
1538.718206	1.644346	0.471683	7511.999023
1538.719129	1.594717	0.471683	8983.922852
1538.719992	1.549709	0.471683	10321.322266
1538.721076	0.672675	0.471683	11050.501953
1538.722071	0.095369	0.471683	11145.393555
1538.722945	0.095138	0.471683	11228.543945
1538.723923	0.095321	0.471683	11321.767578
1538.725003	0.095336	0.471683	11424.730469
1538.725893	0.095317	0.471683	11509.562500
1538.726759	0.095240	0.471683	11592.041016
1538.727854	0.095409	0.471683	11696.513672
1538.728820	0.095204	0.471683	11788.480469
1538.729707	0.095248	0.471683	11872.964844
1538.730720	0.095402	0.471683	11969.606445
1539.764641	1.404727	0.443734	715.005798
1539.765574	1.804871	0.443734	2398.950195
1539.766449	1.765034	0.443734	3943.354980
1539.767409	1.710330	0.443734	5585.271484
1539.768456	1.650791	0.443734	7313.649414
1539.769362	1.602686	0.443734	8765.682617
1539.770228	1.557539	0.443734	10114.511719
1539.771284	0.882817	0.443734	11046.766602
1539.772222	0.098646	0.443734	11139.296875
1539.773091	0.095306	0.443734	11222.118164
1539.774035	0.095328	0.443734	11312.108398
1539.775068	0.095380	0.443734	11410.635742
1539.775954	0.095365	0.443734	11495.128906
1539.776809	0.095336	0.443734	11576.640625
1539.777833	0.095376	0.443734	11674.305664
1539.778784	0.095314	0.443734	11764.949219
1539.779659	0.095288	0.443734	11848.326172
1539.780536	0.095365	0.443734	11931.960937
1540.793650	1.371709	0.464726	747.581421
1540.794719	1.800586	0.464726	2672.407715
1540.795639	1.753370	0.464726	4285.508301
1540.796501	1.701218	0.464726	5751.958496
1540.797573	1.642603	0.464726	7512.828613
1540.798570	1.589755	0.464726	9097.814453
1540.799467	1.545114	0.464726	10483.781250
1540.800459	0.617043	0.464726	11095.888672
1540.801503	0.095387	0.464726	11195.472656
1540.802403	0.095314	0.464726	11281.254883
1540.803265	0.095354	0.464726	11363.450195
1540.804373	0.095405	0.464726	11469.159180
1540.805338	0.095284	0.464726	11561.108398
1540.806203	0.095321	0.464726	11643.561523
1540.807269	0.095413	0.464726	11745.271484
1540.808310	0.095365	0.464726	11844.546875
1540.809205	0.095317	0.464726	11929.855469
1540.810134	0.095358	0.464726	12018.442383
1541.843991	1.402529	0.434715	708.277283
1541.845013	1.803124	0.434715	2551.069824
1541.845906	1.759149	0.434715	4121.990234
1541.846879	1.703983	0.434715	5779.965820
1541.847926	1.644800	0.434715	7502.071289
1541.848838	1.595698	0.434715	8957.347656
1541.849704	1.550900	0.434715	10300.426758
1541.850776	0.698954	0.434715	11049.705078
1541.851775	0.095596	0.434715	11145.205078
1541.852652	0.095376	0.434715	11228.849609
1541.853617	0.095475	0.434715	11320.982422
1541.854690	0.095420	0.434715	11423.368164
1541.855577	0.095402	0.434715	11507.989258
1541.856450	0.095369	0.434715	11591.246094
1541.857542	0.095511	0.434715	11695.544922
1541.858496	0.095270	0.434715	11786.432617
1541.859381	0.095435	0.434715	11870.892578
1541.860364	0.095511	0.434715	11964.780273
1542.871658	1.371632	0.462877	633.694031
1542.872539	1.805006	0.462877	2223.904297
1542.873546	1.764353	0.462877	4000.607666
1542.874587	1.703163	0.462877	5773.600098
1542.875498	1.652010	0.462877	7278.581543
1542.876359	1.603630	0.462877	8659.307617
1542.877453	1.550189	0.462877	10355.214844
1542.878431	0.775858	0.462877	11114.003906
1542.879293	0.097994	0.462877	11198.474609
1542.880400	0.095457	0.462877	11304.144531
1542.881431	0.095299	0.462877	11402.397461
1542.882325	0.095310	0.462877	11487.604492
1542.883253	0.095438	0.462877	11576.170898
1542.884316	0.095464	0.462877	11677.649414
1542.885255	0.095336	0.462877	11767.169922
1542.886121	0.095391	0.462877	11849.778320
1542.887175	0.095493	0.462877	11950.427734
1542.888198	0.095398	0.462877	12048.019531
1543.924831	1.352886	0.421534	622.327454
1543.925719	1.804973	0.421534	2225.143555
1543.926691	1.766085	0.421534	3941.778320
1543.927730	1.705514	0.421534	5713.807129
1543.928644	1.653505	0.421534	7225.110352
1543.929507	1.606289	0.421534	8611.337891
1543.930596	1.552364	0.421534	10301.863281
1543.931588	0.801925	0.421534	11097.373047
1543.932465	0.098558	0.421534	11183.808594
1543.933467	0.095383	0.421534	11279.382812
1543.934501	0.095336	0.421534	11377.959961
1543.935387	0.095229	0.421534	11462.333008
1543.936245	0.095369	0.421534	11544.159180
1543.937332	0.095387	0.421534	11647.844727
1543.938286	0.095325	0.421534	11738.784180
1543.939175	0.095295	0.421534	11823.501953
1543.940165	0.095405	0.421534	11917.953125
1543.941226	0.095409	0.421534	12019.181641
1544.950434	1.398091	0.449273	718.618652
1544.951449	1.802823	0.449273	2548.484375
1544.952333	1.759680	0.449273	4104.041504
1544.953325	1.703152	0.449273	5793.568359
1544.954384	1.644155	0.449273	7534.728516
1544.955277	1.595317	0.449273	8959.346680
1544.956187	1.549369	0.449273	10369.272461
1544.957074	0.889699	0.449273	11158.435547
1544.958042	0.099565	0.449273	11254.814453
1544.958971	0.095277	0.449273	11343.327148
1544.959891	0.095332	0.449273	11431.032227
1544.960764	0.095431	0.449273	11514.343750
1544.961747	0.095284	0.449273	11608.008789
1544.962656	0.095292	0.449273	11694.628906
1544.963529	0.095255	0.449273	11777.787109
1544.964638	0.095402	0.449273	11883.587891
1544.965532	0.095259	0.449273	11968.749023
1544.966457	0.095270	0.449273	12056.874023
1546.005443	1.318396	0.392937	565.591858
1546.006412	1.801575	0.392937	2311.317627
1546.007467	1.757798	0.392937	4165.794434
1546.008398	1.703676	0.392937	5751.916504
1546.009265	1.653790	0.392937	7185.752930
1546.010350	1.597288	0.392937	8918.809570
1546.011359	1.545352	0.392937	10478.069336
1546.012247	0.775166	0.392937	11166.416992
1546.013250	0.097855	0.392937	11264.565430
1546.014289	0.095413	0.392937	11363.699219
1546.015190	0.095347	0.392937	11449.606445
1546.016047	0.095391	0.392937	11531.356445
1546.017136	0.095380	0.392937	11635.224609
1546.018083	0.095197	0.392937	11725.375977
1546.018970	0.095211	0.392937	11809.828125
1546.019964	0.095442	0.392937	11904.697266
1546.021015	0.095365	0.392937	12004.925781
1546.021900	0.095277	0.392937	12089.246094
1547.027712	1.381135	0.446353	664.326050
1547.028596	1.804893	0.446353	2259.851074
1547.029474	1.769246	0.446353	3813.248779
1547.030425	1.714497	0.446353	5443.735352
1547.031406	1.658844	0.446353	7071.061523
1547.032336	1.609453	0.446353	8567.852539
1547.033204	1.564541	0.446353	9925.874023
1547.034246	1.111220	0.446353	11083.764648
1547.035138	0.116063	0.446353	11187.292969
1547.036007	0.095186	0.446353	11270.008789
1547.036865	0.095416	0.446353	11351.875977
1547.037927	0.095310	0.446353	11453.095703
1547.038805	0.095303	0.446353	11536.771484
1547.039679	0.095251	0.446353	11620.021484
1547.040669	0.095358	0.446353	11714.425781
1547.041608	0.095336	0.446353	11803.946289
1547.042532	0.095266	0.446353	11891.972656
1547.043396	0.095387	0.446353	11974.386719
1548.086166	1.357657	0.399145	701.908875
1548.087227	1.801106	0.399145	2612.882324
1548.088150	1.755007	0.399145	4232.753906
1548.089015	1.703430	0.399145	5706.220703
1548.090117	1.643624	0.399145	7517.494629
1548.091128	1.589604	0.399145	9124.584961
1548.092011	1.544773	0.399145	10488.619141
1548.093023	0.639188	0.399145	11135.477539
1548.094072	0.095398	0.399145	11235.549805
1548.094958	0.095314	0.399145	11319.998047
1548.095813	0.095350	0.399145	11401.522461
1548.096871	0.095438	0.399145	11502.496094
1548.097875	0.095299	0.399145	11598.176758
1548.098763	0.095273	0.399145	11682.779297
1548.099745	0.095358	0.399145	11776.420898
1548.100784	0.095383	0.399145	11875.524414
1548.101681	0.095365	0.399145	11961.066406
1548.102541	0.095354	0.399145	12043.071289
1549.105337	1.303326	0.445950	548.700439
1549.106199	1.801340	0.445950	2101.455811
1549.107340	1.759453	0.445950	4108.992187
1549.108250	1.706191	0.445950	5661.626465
1549.109116	1.657335	0.445950	7096.878906
1549.110221	1.598547	0.445950	8863.273437
1549.111201	1.548988	0.445950	10381.281250
1549.112090	0.870289	0.445950	11154.968750
1549.112979	0.100540	0.445950	11244.348633
1549.114075	0.095160	0.445950	11348.643555
1549.114952	0.095149	0.445950	11432.088867
1549.115811	0.095197	0.445950	11513.862305
1549.116866	0.095295	0.445950	11614.399414
1549.117836	0.095160	0.445950	11706.704102
1549.118703	0.095281	0.445950	11789.312500
1549.119564	0.095325	0.445950	11871.386719
1549.120662	0.095284	0.445950	11976.008789
1549.121568	0.095233	0.445950	12062.290039
1550.167073	1.402643	0.383765	716.750488
1550.167985	1.804947	0.383765	2362.862549
1550.168851	1.765536	0.383765	3891.816406
1550.169939	1.703698	0.383765	5745.439453
1550.170931	1.648107	0.383765	7380.361328
1550.171815	1.601250	0.383765	8795.866211
1550.172822	1.550669	0.383765	10357.389648
1550.173872	0.672191	0.383765	11063.190430
1550.174772	0.095929	0.383765	11149.526367
1550.175629	0.095354	0.383765	11231.245117
1550.176712	0.095339	0.383765	11334.498047
1550.177664	0.095186	0.383765	11425.114258
1550.178542	0.095222	0.383765	11508.719727
1550.179535	0.095317	0.383765	11603.370117
1550.180578	0.095361	0.383765	11702.832031
1550.181475	0.095175	0.383765	11788.203125
1550.182336	0.095244	0.383765	11870.208008
1550.183431	0.095361	0.383765	11974.628906
1551.185206	1.296768	0.452915	547.235901
1551.186245	1.801930	0.452915	2419.441162
1551.187292	1.754063	0.452915	4255.944336
1551.188194	1.701786	0.452915	5790.955078
1551.189143	1.649191	0.452915	7356.037109
1551.190207	1.592230	0.452915	9050.169922
1551.191151	1.544663	0.452915	10508.332031
1551.192022	0.760261	0.452915	11170.519531
1551.193082	0.095837	0.452915	11272.107422
1551.194077	0.095281	0.452915	11366.912109
1551.194967	0.095262	0.452915	11451.695312
1551.195934	0.095394	0.452915	11543.941406
1551.196968	0.095358	0.452915	11642.541016
1551.197893	0.095255	0.452915	11730.652344
1551.198758	0.095295	0.452915	11813.083008
1551.199844	0.095427	0.452915	11916.716797
1551.200824	0.095211	0.452915	12010.023437
1551.201708	0.095277	0.452915	12094.248047
1552.245588	1.323750	0.400305	593.040039
1552.246663	1.801846	0.400305	2530.024170
1552.247618	1.756249	0.400305	4207.241699
1552.248482	1.705587	0.400305	5680.869141
1552.249540	1.647433	0.400305	7423.853027
1552.250571	1.592417	0.400305	9065.634766
1552.251456	1.547860	0.400305	10435.491211
1552.252415	0.750333	0.400305	11155.060547
1552.253476	0.095808	0.400305	11256.712891
1552.254389	0.095219	0.400305	11343.647461
1552.255253	0.095310	0.400305	11425.995117
1552.256292	0.095391	0.400305	11525.106445
1552.257302	0.095314	0.400305	11621.373047
1552.258189	0.095259	0.400305	11705.867187
1552.259148	0.095402	0.400305	11797.357422
1552.260207	0.095284	0.400305	11898.263672
1552.261124	0.095292	0.400305	11985.646484
1552.261988	0.095273	0.400305	12067.962891
1553.264952	1.301451	0.463175	550.513916
1553.265969	1.801666	0.463175	2382.808594
1553.267025	1.755227	0.463175	4236.328125
1553.267919	1.703145	0.463175	5758.939453
1553.268837	1.651047	0.463175	7274.601074
1553.269922	1.593622	0.463175	9003.680664
1553.270883	1.545927	0.463175	10489.316406
1553.271758	0.776462	0.463175	11168.720703
1553.272801	0.096079	0.463175	11268.931641
1553.273818	0.095310	0.463175	11365.862305
1553.274711	0.095208	0.463175	11450.882812
1553.275680	0.095295	0.463175	11543.223633
1553.276708	0.095295	0.463175	11641.187500
1553.277630	0.095240	0.463175	11728.999023
1553.278493	0.095182	0.463175	11811.140625
1553.279555	0.095339	0.463175	11912.390625
1553.280550	0.095284	0.463175	12007.198242
1553.281432	0.095270	0.463175	12091.226562
1554.322106	1.303103	0.382415	546.000122
1554.323057	1.800436	0.382415	2258.214600
1554.324033	1.763577	0.382415	3979.465332
1554.324954	1.710271	0.382415	5554.625000
1554.325839	1.659789	0.382415	7023.538086
1554.326857	1.606443	0.382415	8658.896484
1554.327765	1.559052	0.382415	10074.515625
1554.328693	1.133533	0.382415	11126.433594
1554.329562	0.119319	0.382415	11230.122070
1554.330575	0.095193	0.382415	11326.552734
1554.331518	0.095295	0.382415	11416.416016
1554.332394	0.095255	0.382415	11499.859375
1554.333389	0.095273	0.382415	11594.656250
1554.334295	0.095197	0.382415	11680.904297
1554.335194	0.095237	0.382415	11766.522461
1554.336074	0.095299	0.382415	11850.385742
1554.337100	0.095273	0.382415	11948.136719
1554.337992	0.095266	0.382415	12033.114258
1555.346474	1.411838	0.431138	735.567810
1555.347414	1.804446	0.431138	2431.746826
1555.348281	1.763071	0.431138	3960.329590
1555.349359	1.701936	0.431138	5795.016602
1555.350370	1.644924	0.431138	7458.035156
1555.351257	1.598482	0.431138	8875.888672
1555.352246	1.549149	0.431138	10407.997070
1555.353286	0.637068	0.431138	11070.547852
1555.354191	0.095830	0.431138	11157.274414
1555.355052	0.095281	0.431138	11239.311523
1555.356145	0.095292	0.431138	11343.465820
1555.357138	0.095134	0.431138	11437.934570
1555.358009	0.095266	0.431138	11520.911133
1555.358990	0.095427	0.431138	11614.525391
1555.360042	0.095295	0.431138	11714.776367
1555.360931	0.095233	0.431138	11799.438477
1555.361798	0.095226	0.431138	11881.999023
1555.362886	0.095277	0.431138	11985.660156
1556.400243	1.377015	0.382113	645.820190
1556.401130	1.804398	0.382113	2246.321289
1556.402001	1.770297	0.382113	3788.249756
1556.403006	1.713728	0.382113	5510.546387
1556.403920	1.659796	0.382113	7027.600098
1556.404842	1.610643	0.382113	8512.613281
1556.405719	1.565087	0.382113	9885.194336
1556.406747	1.154022	0.382113	11071.529297
1556.407645	0.118594	0.382113	11178.026367
1556.408518	0.095229	0.382113	11261.162109
1556.409456	0.095347	0.382113	11350.597656
1556.410457	0.095350	0.382113	11446.042969
1556.411381	0.095259	0.382113	11534.062500
1556.412246	0.095273	0.382113	11616.473633
1556.413313	0.095336	0.382113	11718.197266
1556.414195	0.095321	0.382113	11802.270508
1556.415071	0.095328	0.382113	11885.778320
1556.415936	0.095350	0.382113	11968.256836
1557.427902	1.303956	0.422062	555.485352
1557.428942	1.802022	0.422062	2429.587891
1557.429975	1.755659	0.422062	4243.183594
1557.430853	1.703822	0.422062	5739.139160
1557.431787	1.651439	0.422062	7281.583496
1557.432863	1.594783	0.422062	8997.569336
1557.433811	1.546871	0.422062	10464.002930
1557.434678	0.819419	0.422062	11174.439453
1557.435717	0.096592	0.422062	11274.797852
1557.436734	0.095391	0.422062	11371.810547
1557.437619	0.095299	0.422062	11456.150391
1557.438574	0.095387	0.422062	11547.245117
1557.439620	0.095435	0.422062	11647.069336
1557.440540	0.095284	0.422062	11734.731445
1557.441411	0.095336	0.422062	11817.768555
1557.442481	0.095427	0.422062	11919.875977
1557.443486	0.095251	0.422062	12015.603516
1557.444379	0.095164	0.422062	12100.584961
1558.479230	1.343632	0.386536	663.754028
1558.480234	1.804003	0.386536	2474.972656
1558.481149	1.759563	0.386536	4084.972656
1558.482030	1.708531	0.386536	5590.188965
1558.483038	1.653684	0.386536	7257.102539
1558.483942	1.603502	0.386536	8706.667969
1558.484874	1.556331	0.386536	10157.167969
1558.485746	1.057134	0.386536	11078.988281
1558.486765	0.101440	0.386536	11182.356445
1558.487658	0.095281	0.386536	11267.442383
1558.488532	0.095295	0.386536	11350.730469
1558.489511	0.095380	0.386536	11444.107422
1558.490454	0.095314	0.386536	11533.988281
1558.491376	0.095262	0.386536	11621.820312
1558.492237	0.095295	0.386536	11703.870117
1558.493254	0.095306	0.386536	11800.796875
1558.494133	0.095288	0.386536	11884.554687
1558.495012	0.095339	0.386536	11968.358398
