time (s)	coil I (A)	last det (V)	int current (uC)
1900.442720	1.326376	0.416551	587.584473
1900.443597	1.807317	0.416551	2172.601562
1900.444463	1.776127	0.416551	3710.727295
1900.445525	1.715687	0.416551	5532.787109
1900.446411	1.662546	0.416551	7005.803223
1900.447342	1.097838	0.416551	8027.890625
1900.448213	0.110262	0.416551	8123.929199
1900.449259	0.095233	0.416551	8223.542969
1900.450149	0.095255	0.416551	8308.320312
1900.451027	0.095358	0.416551	8392.043945
1900.452007	0.095350	0.416551	8485.487305
1900.452952	0.095328	0.416551	8575.572266
1900.453877	0.095365	0.416551	8663.785156
1900.454741	0.095328	0.416551	8746.148437
1900.455775	0.095402	0.416551	8844.793945
1900.456655	0.095277	0.416551	8928.637695
1901.458704	1.382461	0.478596	700.907715
1901.459601	1.808357	0.478596	2323.003906
1901.460467	1.769399	0.478596	3855.303711
1901.461564	1.707590	0.478596	5728.530273
1901.462557	1.651494	0.478596	7368.463867
1901.463450	0.796655	0.478596	8079.876953
1901.464449	0.097837	0.478596	8177.616211
1901.465501	0.095336	0.478596	8277.909180
1901.466380	0.095288	0.478596	8361.666992
1901.467260	0.095237	0.478596	8445.475586
1901.468337	0.095409	0.478596	8548.231445
1901.469299	0.095339	0.478596	8639.948242
1901.470156	0.095262	0.478596	8721.587891
1901.471169	0.095413	0.478596	8818.241211
1901.472209	0.095380	0.478596	8917.435547
1901.473099	0.095303	0.478596	9002.254883
1902.522591	1.333550	0.408148	596.096741
1902.523465	1.807613	0.408148	2175.950928
1902.524330	1.775720	0.408148	3711.948975
1902.525367	1.716888	0.408148	5492.362305
1902.526235	1.665967	0.408148	6938.421387
1902.527118	1.238602	0.408148	8032.107422
1902.528003	0.128408	0.408148	8145.748535
1902.529048	0.095317	0.408148	8245.355469
1902.529945	0.095332	0.408148	8330.868164
1902.530825	0.095343	0.408148	8414.769531
1902.531816	0.095427	0.408148	8509.337891
1902.532761	0.095372	0.408148	8599.464844
1902.533684	0.095314	0.408148	8687.439453
1902.534550	0.095325	0.408148	8769.990234
1902.535574	0.095284	0.408148	8867.561523
1902.536457	0.095288	0.408148	8951.701172
1903.537444	1.396626	0.475026	743.005005
1903.538494	1.804384	0.475026	2637.607666
1903.539408	1.758259	0.475026	4244.656738
1903.540276	1.705865	0.475026	5725.347656
1903.541372	1.646360	0.475026	7529.757812
1903.542334	0.495831	0.475026	8006.747559
1903.543214	0.095482	0.475026	8090.771973
1903.544227	0.095442	0.475026	8187.454590
1903.545286	0.095343	0.475026	8288.422852
1903.546163	0.095288	0.475026	8371.990234
1903.547036	0.095391	0.475026	8455.266602
1903.548141	0.095402	0.475026	8560.685547
1903.549094	0.095259	0.475026	8651.466797
1903.549960	0.095365	0.475026	8734.052734
1903.550976	0.095416	0.475026	8830.996094
1903.552018	0.095325	0.475026	8930.324219
1904.602101	1.375067	0.406625	644.906494
1904.602981	1.807786	0.406625	2235.757812
1904.603861	1.773552	0.406625	3796.483887
1904.604847	1.716899	0.406625	5489.346680
1904.605794	1.661796	0.406625	7063.067383
1904.606718	1.068717	0.406625	8050.562012
1904.607594	0.107355	0.406625	8144.604980
1904.608636	0.095259	0.406625	8243.864258
1904.609524	0.095259	0.406625	8328.454102
1904.610406	0.095270	0.406625	8412.482422
1904.611352	0.095358	0.406625	8502.690430
1904.612328	0.095310	0.406625	8595.712891
1904.613252	0.095328	0.406625	8683.795898
1904.614118	0.095350	0.406625	8766.369141
1904.615151	0.095317	0.406625	8864.832031
1904.616023	0.095266	0.406625	8947.904297
1905.617189	1.380092	0.450107	731.448547
1905.618253	1.803735	0.450107	2650.623047
1905.619168	1.757545	0.450107	4258.776855
1905.620032	1.705514	0.450107	5732.340820
1905.621119	1.646616	0.450107	7522.212891
1905.622123	0.444218	0.450107	7968.207031
1905.623002	0.095233	0.450107	8051.916992
1905.623992	0.095416	0.450107	8146.378906
1905.625038	0.095347	0.450107	8246.111328
1905.625923	0.095350	0.450107	8330.496094
1905.626779	0.095321	0.450107	8412.090820
1905.627866	0.095387	0.450107	8515.776367
1905.628843	0.095273	0.450107	8608.858398
1905.629706	0.095270	0.450107	8691.076172
1905.630749	0.095372	0.450107	8790.549805
1905.631782	0.095350	0.450107	8889.046875
1906.680764	1.322435	0.404365	562.034973
1906.681810	1.806584	0.404365	2451.722412
1906.682710	1.765049	0.404365	4040.266357
1906.683590	1.713702	0.404365	5548.324219
1906.684563	1.660078	0.404365	7163.580078
1906.685520	0.918992	0.404365	8043.055176
1906.686449	0.098899	0.404365	8134.932129
1906.687313	0.095310	0.404365	8217.280273
1906.688344	0.095424	0.404365	8315.662109
1906.689229	0.095394	0.404365	8400.085937
1906.690102	0.095347	0.404365	8483.323242
1906.691012	0.095416	0.404365	8570.152344
1906.692035	0.095354	0.404365	8667.699219
1906.692915	0.095332	0.404365	8751.591797
1906.693796	0.095343	0.404365	8835.588867
1906.694766	0.095435	0.404365	8928.160156
1907.696442	1.310739	0.449068	549.199463
1907.697528	1.805024	0.449068	2509.456055
1907.698535	1.756468	0.449068	4278.219727
1907.699436	1.704533	0.449068	5814.003418
1907.700433	1.649194	0.449068	7458.250000
1907.701500	0.469684	0.449068	7959.402832
1907.702394	0.095178	0.449068	8044.492187
1907.703256	0.095380	0.449068	8126.709473
1907.704364	0.095475	0.449068	8232.496094
1907.705321	0.095211	0.449068	8323.613281
1907.706189	0.095314	0.449068	8406.345703
1907.707243	0.095420	0.449068	8506.917969
1907.708280	0.095369	0.449068	8605.815430
1907.709176	0.095343	0.449068	8691.243164
1907.710096	0.095391	0.449068	8779.002930
1907.711144	0.095332	0.449068	8878.911133
1908.759890	1.332506	0.403665	584.970154
1908.760755	1.805662	0.403665	2146.867432
1908.761796	1.766682	0.403665	3985.983398
1908.762687	1.714563	0.403665	5513.659180
1908.763559	1.665487	0.403665	6965.963867
1908.764557	1.012998	0.403665	7976.936035
1908.765480	0.102034	0.403665	8071.113281
1908.766401	0.095277	0.403665	8158.863281
1908.767268	0.095255	0.403665	8241.449219
1908.768313	0.095314	0.403665	8341.051758
1908.769200	0.095328	0.403665	8425.608398
1908.770073	0.095325	0.403665	8508.827148
1908.771039	0.095372	0.403665	8600.957031
1908.771991	0.095255	0.403665	8691.639648
1908.772907	0.095299	0.403665	8778.933594
1908.773768	0.095303	0.403665	8860.989258
1909.774722	1.379678	0.469387	681.560791
1909.775603	1.807961	0.469387	2274.375000
1909.776527	1.769161	0.469387	3909.080078
1909.777602	1.707341	0.469387	5744.472168
1909.778541	1.654124	0.469387	7297.694336
1909.779409	0.916769	0.469387	8093.449707
1909.780457	0.097573	0.469387	8195.706055
1909.781472	0.095237	0.469387	8292.371094
1909.782347	0.095332	0.469387	8375.786133
1909.783295	0.095435	0.469387	8466.257812
1909.784339	0.095446	0.469387	8565.903320
1909.785274	0.095376	0.469387	8655.080078
1909.786136	0.095358	0.469387	8737.278320
1909.787171	0.095394	0.469387	8836.011719
1909.788196	0.095358	0.469387	8933.752930
1909.789091	0.095398	0.469387	9019.133789
1910.839356	1.307655	0.399278	554.445740
1910.840311	1.804193	0.399278	2277.450195
1910.841344	1.763093	0.399278	4098.725586
1910.842244	1.710714	0.399278	5638.368164
1910.843115	1.660833	0.399278	7084.953125
1910.844183	0.808671	0.399278	7948.613281
1910.845128	0.096632	0.399278	8039.930664
1910.846005	0.095175	0.399278	8123.398926
1910.846947	0.095270	0.399278	8213.142578
1910.847984	0.095424	0.399278	8312.096680
1910.848879	0.095248	0.399278	8397.343750
1910.849740	0.095277	0.399278	8479.376953
1910.850797	0.095435	0.399278	8580.250977
1910.851745	0.095358	0.399278	8670.650391
1910.852618	0.095343	0.399278	8753.884766
1910.853526	0.095328	0.399278	8840.443359
1911.854092	1.387075	0.466986	697.698792
1911.855027	1.807716	0.466986	2387.913330
1911.855897	1.768206	0.466986	3926.252197
1911.856952	1.707070	0.466986	5727.211426
1911.857975	1.649930	0.466986	7415.090332
1911.858871	0.740687	0.466986	8078.746094
1911.859825	0.097504	0.466986	8171.764648
1911.860881	0.095468	0.466986	8272.578125
1911.861809	0.095284	0.466986	8361.001953
1911.862673	0.095438	0.466986	8443.460937
1911.863752	0.095519	0.466986	8546.525391
1911.864745	0.095347	0.466986	8641.205078
1911.865639	0.095303	0.466986	8726.405273
1911.866607	0.095380	0.466986	8818.732422
1911.867647	0.095453	0.466986	8918.003906
1911.868552	0.095255	0.466986	9004.209961
1912.919484	1.303795	0.383136	550.201538
1912.920520	1.805482	0.383136	2420.681152
1912.921490	1.762471	0.383136	4130.277344
1912.922375	1.710678	0.383136	5644.227051
1912.923275	1.658002	0.383136	7136.428711
1912.924379	0.728090	0.383136	7940.239746
1912.925261	0.096683	0.383136	8025.514648
1912.926118	0.095295	0.383136	8107.182617
1912.927143	0.095552	0.383136	8205.123047
1912.928113	0.095270	0.383136	8297.535156
1912.928991	0.095354	0.383136	8381.255859
1912.929861	0.095405	0.383136	8464.258789
1912.930979	0.095424	0.383136	8570.942383
1912.931874	0.095259	0.383136	8656.199219
1912.932735	0.095347	0.383136	8738.292969
1912.933803	0.095446	0.383136	8840.228516
1913.935053	1.330825	0.440302	585.563110
1913.935916	1.804922	0.440302	2143.210693
1913.937036	1.762416	0.440302	4117.116211
1913.938007	1.706147	0.440302	5773.785156
1913.938867	1.656940	0.440302	7198.752930
1913.939951	0.696643	0.440302	7953.914062
1913.940989	0.095515	0.440302	8053.058594
1913.941863	0.095317	0.440302	8136.366211
1913.942790	0.095281	0.440302	8224.691406
1913.943847	0.095438	0.440302	8325.569336
1913.944792	0.095270	0.440302	8415.599609
1913.945665	0.095299	0.440302	8498.795898
1913.946692	0.095402	0.440302	8596.773437
1913.947721	0.095317	0.440302	8694.855469
1913.948616	0.095332	0.440302	8780.177734
1913.949554	0.095361	0.440302	8869.626953
1914.997130	1.380531	0.391769	681.982361
1914.998078	1.807588	0.391769	2395.575684
1914.998944	1.767891	0.391769	3926.568848
1915.000015	1.706821	0.391769	5754.574219
1915.001038	1.649366	0.391769	7441.875977
1915.001918	0.729269	0.391769	8083.632324
1915.002878	0.097244	0.391769	8176.986328
1915.003925	0.095321	0.391769	8276.787109
1915.004848	0.095259	0.391769	8364.710937
1915.005713	0.095255	0.391769	8447.106445
1915.006778	0.095383	0.391769	8548.689453
1915.007770	0.095259	0.391769	8643.186523
1915.008660	0.095299	0.391769	8728.002930
1915.009633	0.095380	0.391769	8820.807617
1915.010690	0.095336	0.391769	8921.577148
1915.011593	0.095255	0.391769	9007.592773
1916.014801	1.337212	0.437591	591.047607
1916.015663	1.805021	0.437591	2146.975586
1916.016786	1.762170	0.437591	4125.892578
1916.017759	1.705107	0.437591	5784.961914
1916.018639	1.655786	0.437591	7242.053711
1916.019668	0.739398	0.437591	8002.894531
1916.020710	0.095673	0.437591	8102.585449
1916.021583	0.095244	0.437591	8185.733398
1916.022469	0.095413	0.437591	8270.268555
1916.023561	0.095464	0.437591	8374.514648
1916.024514	0.095295	0.437591	8465.331055
1916.025383	0.095233	0.437591	8548.088867
1916.026395	0.095365	0.437591	8644.598633
1916.027427	0.095336	0.437591	8742.985352
1916.028316	0.095259	0.437591	8827.669922
1916.029238	0.095457	0.437591	8915.680664
1917.075512	1.300942	0.387459	547.696716
1917.076502	1.803640	0.387459	2333.300537
1917.077529	1.760900	0.387459	4141.744629
1917.078429	1.708843	0.387459	5679.703125
1917.079300	1.658130	0.387459	7123.934570
1917.080402	0.720260	0.387459	7917.661133
1917.081321	0.096064	0.387459	8005.944336
1917.082182	0.095306	0.387459	8088.002930
1917.083280	0.095482	0.387459	8192.842773
1917.084261	0.095259	0.387459	8286.291992
1917.085155	0.095255	0.387459	8371.450195
1917.086151	0.095405	0.387459	8466.473633
1917.087190	0.095372	0.387459	8565.565430
1917.088084	0.095383	0.387459	8650.837891
1917.088943	0.095416	0.387459	8732.800781
1917.090038	0.095383	0.387459	8837.245117
1918.095284	1.304692	0.433253	545.361389
1918.096351	1.804882	0.433253	2471.169922
1918.097370	1.756560	0.433253	4261.104492
1918.098267	1.704858	0.433253	5790.362305
1918.099256	1.650341	0.433253	7422.548828
1918.100313	0.511787	0.433253	7963.507812
1918.101221	0.095248	0.433253	8049.992676
1918.102092	0.095266	0.433253	8132.969238
1918.103188	0.095420	0.433253	8237.549805
1918.104173	0.095321	0.433253	8331.441406
1918.105066	0.095292	0.433253	8416.537109
1918.106055	0.095376	0.433253	8510.864258
1918.107112	0.095336	0.433253	8611.633789
1918.108008	0.095277	0.433253	8697.001953
1918.108868	0.095409	0.433253	8779.053711
1918.109974	0.095391	0.433253	8884.555664
1919.153704	1.403262	0.384405	726.889587
1919.154589	1.807983	0.384405	2326.954834
1919.155454	1.770700	0.384405	3858.609863
1919.156542	1.708092	0.384405	5717.014160
1919.157506	1.653922	0.384405	7311.395020
1919.158379	0.883008	0.384405	8082.260742
1919.159242	0.099998	0.384405	8168.558594
1919.160363	0.095354	0.384405	8275.450195
1919.161260	0.095233	0.384405	8360.874023
1919.162126	0.095226	0.384405	8443.339844
1919.163152	0.095391	0.384405	8541.210937
1919.164128	0.095273	0.384405	8634.198242
1919.165009	0.095204	0.384405	8718.073242
1919.165871	0.095358	0.384405	8800.271484
1919.166976	0.095255	0.384405	8905.528320
1919.167865	0.095266	0.384405	8990.219727
1920.176164	1.401251	0.425381	721.644348
1920.177186	1.805299	0.425381	2566.659912
1920.178067	1.761588	0.425381	4118.619141
1920.179047	1.704961	0.425381	5789.480957
1920.180111	1.645298	0.425381	7540.078125
1920.181031	0.552711	0.425381	8048.572266
1920.181893	0.095793	0.425381	8131.145996
1920.182989	0.095354	0.425381	8235.654297
1920.183978	0.095339	0.425381	8329.945312
1920.184871	0.095273	0.425381	8415.024414
1920.185860	0.095394	0.425381	8509.369141
1920.186910	0.095284	0.425381	8609.417969
1920.187807	0.095325	0.425381	8694.923828
1920.188668	0.095310	0.425381	8776.985352
1920.189778	0.095299	0.425381	8882.767578
1920.190745	0.095262	0.425381	8974.886719
1921.233866	1.330730	0.377001	581.528992
1921.234747	1.807148	0.377001	2173.626709
1921.235609	1.774113	0.377001	3702.911621
1921.236715	1.712454	0.377001	5596.885254
1921.237615	1.660646	0.377001	7091.466309
1921.238495	1.114508	0.377001	8072.233398
1921.239518	0.109794	0.377001	8184.552246
1921.240507	0.095259	0.377001	8278.763672
1921.241379	0.095303	0.377001	8361.867187
1921.242241	0.095277	0.377001	8443.996094
1921.243328	0.095339	0.377001	8547.629883
1921.244236	0.095240	0.377001	8634.108398
1921.245115	0.095325	0.377001	8717.898437
1921.246086	0.095372	0.377001	8810.504883
1921.247100	0.095339	0.377001	8907.178711
1921.247992	0.095273	0.377001	8992.163086
1922.255902	1.401119	0.422433	711.768616
1922.256927	1.805457	0.422433	2562.361572
1922.257816	1.761636	0.422433	4128.456055
1922.258783	1.706173	0.422433	5778.325195
1922.259843	1.646488	0.422433	7523.602539
1922.260774	0.562130	0.422433	8046.945801
1922.261637	0.095940	0.422433	8129.742187
1922.262709	0.095328	0.422433	8231.934570
1922.263701	0.095281	0.422433	8326.453125
1922.264594	0.095277	0.422433	8411.535156
1922.265559	0.095416	0.422433	8503.612305
1922.266603	0.095402	0.422433	8603.211914
1922.267512	0.095328	0.422433	8689.865234
1922.268372	0.095325	0.422433	8771.844727
1922.269457	0.095442	0.422433	8875.399414
1922.270446	0.095321	0.422433	8969.671875
1923.311300	1.313082	0.388579	563.312317
1923.312185	1.804340	0.388579	2160.152832
1923.313275	1.764437	0.388579	4083.389648
1923.314168	1.711871	0.388579	5612.090820
1923.315028	1.662147	0.388579	7041.537598
1923.316103	0.823813	0.388579	7927.137207
1923.317080	0.096266	0.388579	8021.188965
1923.317959	0.095292	0.388579	8104.950195
1923.318839	0.095369	0.388579	8188.874512
1923.319937	0.095332	0.388579	8293.548828
1923.320835	0.095295	0.388579	8379.124023
1923.321696	0.095328	0.388579	8461.202148
1923.322783	0.095464	0.388579	8564.971680
1923.323744	0.095292	0.388579	8656.546875
1923.324620	0.095391	0.388579	8740.109375
1923.325495	0.095500	0.388579	8823.671875
1924.336523	1.379030	0.417236	692.272827
1924.337403	1.807819	0.417236	2283.153320
1924.338268	1.769465	0.417236	3813.740723
1924.339381	1.707220	0.417236	5713.876953
1924.340355	1.652996	0.417236	7323.894531
1924.341231	0.868627	0.417236	8084.811523
1924.342262	0.097361	0.417236	8185.190430
1924.343296	0.095380	0.417236	8283.812500
1924.344176	0.095314	0.417236	8367.688477
1924.345110	0.095405	0.417236	8456.796875
1924.346175	0.095486	0.417236	8558.489258
1924.347110	0.095273	0.417236	8647.570312
1924.347970	0.095376	0.417236	8729.593750
1924.349003	0.095405	0.417236	8828.147461
1924.350037	0.095343	0.417236	8926.732422
1924.350910	0.095343	0.417236	9009.966797
1925.390535	1.327885	0.391692	578.957642
1925.391424	1.807280	0.391692	2185.629883
1925.392290	1.773248	0.391692	3721.262939
1925.393348	1.713999	0.391692	5534.673828
1925.394242	1.663473	0.391692	7021.818359
1925.395122	1.182642	0.391692	8062.542969
1925.396119	0.118799	0.391692	8180.985352
1925.397062	0.095248	0.391692	8270.803711
1925.397976	0.095277	0.391692	8357.886719
1925.398833	0.095376	0.391692	8439.624023
1925.399846	0.095376	0.391692	8536.240234
1925.400741	0.095299	0.391692	8621.533203
1925.401613	0.095277	0.391692	8704.615234
1925.402547	0.095446	0.391692	8793.761719
1925.403534	0.095365	0.391692	8887.886719
1925.404451	0.095339	0.391692	8975.312500
1926.415393	1.403910	0.423428	715.994080
1926.416427	1.805189	0.423428	2582.559814
1926.417327	1.760182	0.423428	4166.723633
1926.418271	1.705543	0.423428	5776.756348
1926.419344	1.645488	0.423428	7542.365234
1926.420289	0.522327	0.423428	8035.963867
1926.421149	0.095654	0.423428	8118.226562
1926.422204	0.095555	0.423428	8219.037109
1926.423207	0.095475	0.423428	8314.798828
1926.424097	0.095391	0.423428	8399.696289
1926.425054	0.095383	0.423428	8490.978516
1926.426092	0.095446	0.423428	8590.050781
1926.427017	0.095328	0.423428	8678.229492
1926.427881	0.095409	0.423428	8760.663086
1926.428961	0.095468	0.423428	8863.767578
1926.429958	0.095321	0.423428	8958.802734
1927.470523	1.301612	0.376449	547.978882
1927.471462	1.803494	0.376449	2241.459473
1927.472537	1.761017	0.376449	4134.552734
1927.473487	1.706349	0.376449	5755.583984
1927.474354	1.656801	0.376449	7192.030273
1927.475413	0.716400	0.376449	7950.698242
1927.476425	0.095647	0.376449	8047.493164
1927.477322	0.095398	0.376449	8133.064941
1927.478294	0.095420	0.376449	8225.813477
1927.479334	0.095347	0.376449	8324.973633
1927.480265	0.095398	0.376449	8413.789062
1927.481128	0.095424	0.376449	8496.139648
1927.482210	0.095479	0.376449	8599.447266
1927.483200	0.095317	0.376449	8693.811523
1927.484092	0.095336	0.376449	8778.850586
1927.485089	0.095526	0.376449	8874.089844
1928.494391	1.312236	0.422187	551.139221
1928.495439	1.804955	0.422187	2442.731934
1928.496439	1.758182	0.422187	4200.914062
1928.497337	1.706774	0.422187	5733.596680
1928.498331	1.651073	0.422187	7374.763184
1928.499391	0.551990	0.422187	7959.872070
1928.500296	0.095332	0.422187	8046.147461
1928.501162	0.095310	0.422187	8128.686035
1928.502271	0.095486	0.422187	8234.580078
1928.503232	0.095277	0.422187	8326.141602
1928.504097	0.095255	0.422187	8408.537109
1928.505148	0.095453	0.422187	8508.858398
1928.506188	0.095310	0.422187	8607.980469
1928.507081	0.095317	0.422187	8693.098633
1928.507967	0.095424	0.422187	8777.643555
1928.509043	0.095383	0.422187	8880.276367
1929.549911	1.337864	0.369360	599.362976
1929.550779	1.806445	0.369360	2167.357666
1929.551828	1.765397	0.369360	4019.258789
1929.552855	1.705880	0.369360	5771.197754
1929.553741	1.655698	0.369360	7238.146484
1929.554726	0.820415	0.369360	8046.255371
1929.555768	0.096273	0.369360	8146.572266
1929.556691	0.095358	0.369360	8234.586914
1929.557548	0.095361	0.369360	8316.311523
1929.558613	0.095446	0.369360	8417.960937
1929.559615	0.095354	0.369360	8513.505859
1929.560487	0.095266	0.369360	8596.578125
1929.561470	0.095332	0.369360	8690.289062
1929.562508	0.095442	0.369360	8789.357422
1929.563418	0.095376	0.369360	8876.149414
1929.564286	0.095354	0.369360	8958.916992
1930.572783	1.370306	0.410706	648.154907
1930.573663	1.807438	0.410706	2238.700195
1930.574634	1.768627	0.410706	3956.036621
1930.575681	1.707056	0.410706	5743.324219
1930.576607	1.654442	0.410706	7275.337402
1930.577475	0.924547	0.410706	8077.844238
1930.578569	0.096841	0.410706	8183.788086
1930.579563	0.095262	0.410706	8278.478516
1930.580440	0.095233	0.410706	8361.998047
1930.581440	0.095427	0.410706	8457.425781
1930.582475	0.095328	0.410706	8556.090820
1930.583374	0.095248	0.410706	8641.718750
1930.584232	0.095273	0.410706	8723.462891
1930.585303	0.095427	0.410706	8825.665039
1930.586301	0.095255	0.410706	8920.729492
1930.587193	0.095226	0.410706	9005.670898
1931.628572	1.398175	0.373807	710.272949
1931.629538	1.806713	0.373807	2455.557373
1931.630416	1.765756	0.373807	4005.890869
1931.631447	1.706488	0.373807	5765.280273
1931.632492	1.648381	0.373807	7487.838867
1931.633384	0.673846	0.373807	8088.909668
1931.634258	0.096643	0.373807	8173.375488
1931.635356	0.095398	0.373807	8278.122070
1931.636291	0.095273	0.373807	8367.203125
1931.637162	0.095211	0.373807	8450.131836
1931.638179	0.095336	0.373807	8547.087891
1931.639209	0.095145	0.373807	8645.087891
1931.640096	0.095266	0.373807	8729.588867
1931.641029	0.095328	0.373807	8818.530273
1931.642100	0.095372	0.373807	8920.673828
1931.643044	0.095259	0.373807	9010.597656
1932.651061	1.309691	0.399931	550.070251
1932.652151	1.805061	0.399931	2517.586670
1932.653067	1.761610	0.399931	4131.221680
1932.653945	1.710117	0.399931	5632.704590
1932.654933	1.655662	0.399931	7268.498047
1932.655954	0.687308	0.399931	7970.239746
1932.656849	0.096365	0.399931	8056.486328
1932.657712	0.095420	0.399931	8138.833496
1932.658789	0.095431	0.399931	8241.612305
1932.659721	0.095339	0.399931	8330.468750
1932.660598	0.095449	0.399931	8414.177734
1932.661565	0.095427	0.399931	8506.456055
1932.662559	0.095365	0.399931	8601.249023
1932.663441	0.095350	0.399931	8685.347656
1932.664300	0.095372	0.399931	8767.272461
1932.665376	0.095449	0.399931	8869.975586
1933.707681	1.377470	0.370371	730.058838
1933.708748	1.803314	0.370371	2654.195068
1933.709671	1.755989	0.370371	4274.972656
1933.710542	1.703954	0.370371	5759.116211
1933.711621	1.645221	0.370371	7534.309570
1933.712624	0.418715	0.370371	7954.280273
1933.713512	0.095273	0.370371	8038.883301
1933.714491	0.095398	0.370371	8132.277832
1933.715535	0.095354	0.370371	8231.827148
1933.716421	0.095277	0.370371	8316.242187
1933.717275	0.095339	0.370371	8397.662109
1933.718365	0.095358	0.370371	8501.601562
1933.719320	0.095164	0.370371	8592.482422
1933.720191	0.095262	0.370371	8675.456055
1933.721203	0.095457	0.370371	8772.057617
1933.722251	0.095402	0.370371	8872.038086
1934.729541	1.321458	0.394077	572.191101
1934.730419	1.806665	0.394077	2158.443115
1934.731384	1.771095	0.394077	3867.549805
1934.732397	1.711655	0.394077	5601.456543
1934.733292	1.660891	0.394077	7087.954102
1934.734162	1.095615	0.394077	8041.139160
1934.735245	0.100093	0.394077	8149.539551
1934.736157	0.095292	0.394077	8236.445312
1934.737032	0.095255	0.394077	8319.793945
1934.738013	0.095343	0.394077	8413.325195
1934.739022	0.095350	0.394077	8509.533203
1934.739904	0.095237	0.394077	8593.532227
1934.740759	0.095251	0.394077	8674.972656
1934.741792	0.095350	0.394077	8773.469727
1934.742732	0.095255	0.394077	8863.009766
1934.743610	0.095262	0.394077	8946.650391
1935.786942	1.309684	0.371301	557.925354
1935.788025	1.804581	0.371301	2512.286865
1935.789034	1.756300	0.371301	4284.393555
1935.789917	1.705411	0.371301	5790.271484
1935.790932	1.649282	0.371301	7464.292969
1935.791986	0.503192	0.371301	7994.657227
1935.792882	0.095273	0.371301	8080.022461
1935.793739	0.095358	0.371301	8161.744141
1935.794818	0.095427	0.371301	8264.709961
1935.795786	0.095321	0.371301	8356.980469
1935.796665	0.095270	0.371301	8440.722656
1935.797662	0.095457	0.371301	8535.892578
1935.798717	0.095424	0.371301	8636.564453
1935.799605	0.095251	0.371301	8721.147461
1935.800470	0.095358	0.371301	8803.631836
1935.801579	0.095490	0.371301	8909.529297
1936.807604	1.299558	0.400651	544.514893
1936.808655	1.805746	0.400651	2442.353760
1936.809537	1.766030	0.400651	3999.992432
1936.810406	1.714867	0.400651	5490.211914
1936.811310	1.662444	0.400651	6993.061035
1936.812333	0.941448	0.400651	7956.162109
1936.813256	0.099730	0.400651	8048.212891
1936.814131	0.095259	0.400651	8131.564453
1936.815117	0.095365	0.400651	8225.594727
1936.816043	0.095317	0.400651	8313.858398
1936.816963	0.095325	0.400651	8401.556641
1936.817828	0.095350	0.400651	8484.035156
1936.818876	0.095251	0.400651	8583.858398
1936.819745	0.095251	0.400651	8666.631836
1936.820614	0.095233	0.400651	8749.389648
1936.821583	0.095343	0.400651	8841.777344
1937.867589	1.432170	0.352851	783.397217
1937.868627	1.804219	0.352851	2656.176270
1937.869521	1.758387	0.352851	4228.174805
1937.870449	1.704001	0.352851	5809.488281
1937.871526	1.644518	0.352851	7580.633789
1937.872457	0.511245	0.352851	8056.603027
1937.873323	0.095508	0.352851	8139.312988
1937.874367	0.095394	0.352851	8238.904297
1937.875379	0.095354	0.352851	8335.402344
1937.876271	0.095350	0.352851	8420.455078
1937.877231	0.095376	0.352851	8512.015625
1937.878270	0.095358	0.352851	8611.091797
1937.879200	0.095299	0.352851	8699.719727
1937.880058	0.095262	0.352851	8781.455078
1937.881137	0.095413	0.352851	8884.405273
1937.882139	0.095343	0.352851	8979.939453
1938.886604	1.332286	0.396949	583.541443
1938.887469	1.805746	0.396949	2145.511475
1938.888532	1.765605	0.396949	4022.350098
1938.889422	1.713285	0.396949	5547.173828
1938.890302	1.663513	0.396949	7011.065430
1938.891263	1.025226	0.396949	7996.307617
1938.892228	0.100876	0.396949	8093.653320
1938.893112	0.095277	0.396949	8177.878418
1938.894006	0.095332	0.396949	8263.105469
1938.895092	0.095361	0.396949	8366.667969
1938.895991	0.095292	0.396949	8452.334961
1938.896854	0.095339	0.396949	8534.613281
1938.897909	0.095431	0.396949	8635.292969
1938.898872	0.095255	0.396949	8727.023437
1938.899753	0.095332	0.396949	8811.010742
1938.900614	0.095350	0.396949	8893.107422
1939.947325	1.442487	0.363482	787.597717
1939.948383	1.803655	0.363482	2695.864502
1939.949261	1.757787	0.363482	4239.201172
1939.950171	1.704108	0.363482	5789.938965
1939.951247	1.644624	0.363482	7559.554687
1939.952198	0.500394	0.363482	8035.429687
1939.953065	0.095500	0.363482	8118.228516
1939.954098	0.095339	0.363482	8216.713867
1939.955120	0.095372	0.363482	8314.184570
1939.956010	0.095325	0.363482	8399.023437
1939.956945	0.095380	0.363482	8488.203125
1939.958002	0.095416	0.363482	8589.058594
1939.958942	0.095171	0.363482	8678.519531
1939.959800	0.095277	0.363482	8760.267578
1939.960865	0.095460	0.363482	8861.932617
1939.961862	0.095321	0.363482	8956.967773
1940.964670	1.438165	0.395145	801.058105
1940.965600	1.806423	0.395145	2481.031738
1940.966528	1.762244	0.395145	4116.393555
1940.967395	1.710363	0.395145	5599.277832
1940.968438	1.653300	0.395145	7323.669434
1940.969324	0.879481	0.395145	8102.889648
1940.970198	0.099774	0.395145	8190.092285
1940.971183	0.095266	0.395145	8283.929687
1940.972101	0.095273	0.395145	8371.390625
1940.973016	0.095317	0.395145	8458.606445
1940.973892	0.095266	0.395145	8542.059570
1940.974916	0.095350	0.395145	8639.698242
1940.975811	0.095314	0.395145	8725.003906
1940.976686	0.095303	0.395145	8808.393555
1940.977567	0.095468	0.395145	8892.500000
1940.978582	0.095299	0.395145	8989.228516
1942.027080	1.446072	0.352267	819.922668
1942.028127	1.803768	0.352267	2708.468018
1942.029004	1.757739	0.352267	4250.005371
1942.029905	1.703862	0.352267	5785.185547
1942.031000	1.643979	0.352267	7585.342773
1942.031966	0.454545	0.352267	8024.433105
1942.032834	0.095442	0.352267	8107.276855
1942.033860	0.095548	0.352267	8205.309570
1942.034883	0.095442	0.352267	8302.946289
1942.035773	0.095310	0.352267	8387.772461
1942.036697	0.095438	0.352267	8475.957031
1942.037750	0.095475	0.352267	8576.492187
1942.038693	0.095332	0.352267	8666.390625
1942.039558	0.095292	0.352267	8748.818359
1942.040609	0.095416	0.352267	8849.100586
1943.043513	1.414347	0.402766	779.305176
1943.044587	1.802699	0.402766	2715.403809
1943.045491	1.755271	0.402766	4302.168945
1943.046359	1.702804	0.402766	5780.202637
1943.047474	1.641130	0.402766	7610.062988
1943.048444	0.416968	0.402766	8014.521484
1943.049312	0.095314	0.402766	8097.253906
1943.050406	0.095526	0.402766	8201.759766
1943.051426	0.095372	0.402766	8299.039062
1943.052315	0.095336	0.402766	8383.792969
1943.053238	0.095427	0.402766	8471.872070
1943.054300	0.095460	0.402766	8573.250977
1943.055233	0.095321	0.402766	8662.185547
1943.056094	0.095354	0.402766	8744.285156
1943.057133	0.095482	0.402766	8843.491211
1944.107280	1.389115	0.341971	687.611938
1944.108283	1.805819	0.341971	2498.848389
1944.109166	1.763936	0.341971	4056.403320
1944.110177	1.705631	0.341971	5780.796387
1944.111237	1.646788	0.341971	7526.392090
1944.112131	0.625657	0.341971	8085.729004
1944.113021	0.096244	0.341971	8171.386230
1944.114103	0.095372	0.341971	8274.579102
1944.115060	0.095328	0.341971	8365.808594
1944.115917	0.095288	0.341971	8447.470703
1944.116938	0.095482	0.341971	8544.958008
1944.117982	0.095332	0.341971	8644.484375
1944.118871	0.095277	0.341971	8729.185547
1944.119808	0.095339	0.341971	8818.518555
1944.120852	0.095387	0.341971	8918.102539
1944.121799	0.095292	0.341971	9008.343750
1945.122741	1.313174	0.408483	551.532959
1945.123837	1.804303	0.408483	2529.048828
1945.124830	1.756622	0.408483	4273.375000
1945.125716	1.705012	0.408483	5784.015625
1945.126730	1.648726	0.408483	7455.823242
1945.127788	0.502170	0.408483	7987.119629
1945.128662	0.095208	0.408483	8070.331055
1945.129550	0.095314	0.408483	8154.969727
1945.130645	0.095387	0.408483	8259.417969
1945.131604	0.095328	0.408483	8350.837891
1945.132468	0.095270	0.408483	8433.151367
1945.133490	0.095468	0.408483	8530.718750
1945.134531	0.095321	0.408483	8629.948242
1945.135422	0.095277	0.408483	8714.839844
1945.136346	0.095372	0.408483	8802.963867
1945.137419	0.095424	0.408483	8905.353516
1946.186301	1.311255	0.352018	557.283325
1946.187250	1.804025	0.352018	2269.302734
1946.188223	1.766169	0.352018	3987.785645
1946.189147	1.712611	0.352018	5570.238281
1946.190016	1.662806	0.352018	7015.216797
1946.191057	0.925455	0.352018	7978.615723
1946.191942	0.100796	0.352018	8067.820312
1946.192816	0.095175	0.352018	8151.002930
1946.193716	0.095310	0.352018	8236.782227
1946.194729	0.095244	0.352018	8333.264648
1946.195640	0.095303	0.352018	8420.084961
1946.196508	0.095189	0.352018	8502.708984
1946.197600	0.095270	0.352018	8606.743164
1946.198506	0.095240	0.352018	8693.031250
1946.199386	0.095266	0.352018	8776.865234
1946.200388	0.095365	0.352018	8872.420898
1947.201626	1.344067	0.410207	603.486267
1947.202489	1.805643	0.410207	2161.756348
1947.203569	1.763818	0.410207	4066.680176
1947.204557	1.705844	0.410207	5752.053711
1947.205442	1.655493	0.410207	7217.165039
1947.206426	0.793015	0.410207	7997.492187
1947.207486	0.095856	0.410207	8099.099121
1947.208379	0.095164	0.410207	8184.080078
1947.209247	0.095383	0.410207	8266.873047
1947.210337	0.095413	0.410207	8370.873047
1947.211303	0.095288	0.410207	8462.920898
1947.212188	0.095240	0.410207	8547.208984
1947.213185	0.095325	0.410207	8642.248047
1947.214233	0.095277	0.410207	8742.098633
1947.215123	0.095215	0.410207	8826.839844
1947.215992	0.095270	0.410207	8909.628906
1948.266272	1.378107	0.339264	727.640259
1948.267340	1.803314	0.339264	2653.579834
1948.268261	1.756311	0.339264	4271.142578
1948.269129	1.703555	0.339264	5749.828125
1948.270237	1.643236	0.339264	7570.533691
1948.271221	0.423490	0.339264	7987.248047
1948.272087	0.095189	0.339264	8069.682129
1948.273198	0.095361	0.339264	8175.628418
1948.274229	0.095284	0.339264	8273.866211
1948.275117	0.095240	0.339264	8358.439453
1948.276050	0.095328	0.339264	8447.380859
1948.277093	0.095402	0.339264	8546.884766
1948.278035	0.095277	0.339264	8636.635742
1948.278902	0.095295	0.339264	8719.256836
1948.279945	0.095358	0.339264	8818.714844
1949.281398	1.356680	0.397143	647.136230
1949.282285	1.806976	0.397143	2249.924316
1949.283145	1.771989	0.397143	3773.834473
1949.284176	1.712582	0.397143	5539.506348
1949.285079	1.661221	0.397143	7039.588867
1949.285966	1.144098	0.397143	8054.403809
1949.286914	0.115463	0.397143	8163.862305
1949.287876	0.095186	0.397143	8255.430664
1949.288788	0.095277	0.397143	8342.323242
1949.289660	0.095306	0.397143	8425.430664
1949.290724	0.095336	0.397143	8526.868164
1949.291618	0.095068	0.397143	8611.859375
1949.292494	0.095138	0.397143	8695.200195
1949.293384	0.095343	0.397143	8780.055664
1949.294419	0.095237	0.397143	8878.625977
1949.295307	0.095226	0.397143	8963.186523
1950.344166	1.362074	0.333914	627.916138
1950.345046	1.807310	0.333914	2218.348633
1950.346025	1.768037	0.333914	3949.256836
1950.347088	1.705730	0.333914	5762.447754
1950.348012	1.653289	0.333914	7290.086426
1950.348890	0.879595	0.333914	8062.370605
1950.349990	0.096130	0.333914	8168.114258
1950.350984	0.095215	0.333914	8262.757812
1950.351878	0.095156	0.333914	8347.827148
1950.352864	0.095321	0.333914	8441.813477
1950.353921	0.095354	0.333914	8542.602539
1950.354816	0.095215	0.333914	8627.820312
1950.355703	0.095380	0.333914	8712.421875
1950.356794	0.095449	0.333914	8816.556641
1950.357759	0.095317	0.333914	8908.538086
1950.358620	0.095270	0.333914	8990.565430
1951.360751	1.378462	0.401324	639.606323
1951.361649	1.806607	0.401324	2261.938965
1951.362538	1.770758	0.401324	3836.142822
1951.363532	1.714252	0.401324	5540.108887
1951.364469	1.659646	0.401324	7095.197266
1951.365404	1.014965	0.401324	8044.188965
1951.366266	0.105227	0.401324	8134.894531
1951.367299	0.095259	0.401324	8233.296875
1951.368179	0.095237	0.401324	8317.105469
1951.369056	0.095277	0.401324	8400.663086
1951.370008	0.095350	0.401324	8491.436523
1951.370989	0.095248	0.401324	8584.875000
1951.371899	0.095306	0.401324	8671.603516
1951.372773	0.095270	0.401324	8754.869141
1951.373789	0.095354	0.401324	8851.749023
1951.374695	0.095208	0.401324	8938.006836
1952.423565	1.382728	0.323457	695.512268
1952.424473	1.807372	0.323457	2336.605957
1952.425337	1.768191	0.323457	3864.322754
1952.426430	1.706763	0.323457	5729.814453
1952.427413	1.651289	0.323457	7353.031250
1952.428315	0.790825	0.323457	8066.355469
1952.429318	0.097870	0.323457	8164.519043
1952.430372	0.095288	0.323457	8264.953125
1952.431253	0.095314	0.323457	8348.924805
1952.432117	0.095369	0.323457	8431.323242
1952.433211	0.095471	0.323457	8535.768555
1952.434180	0.095281	0.323457	8628.095703
1952.435038	0.095240	0.323457	8709.812500
1952.436110	0.095365	0.323457	8812.043945
1952.437139	0.095380	0.323457	8910.189453
1952.438013	0.095325	0.323457	8993.502930
1953.440851	1.324347	0.380369	590.658691
1953.441725	1.806614	0.380369	2169.639160
1953.442670	1.770568	0.380369	3842.825439
1953.443734	1.708967	0.380369	5661.166504
1953.444626	1.658368	0.380369	7140.430664
1953.445504	1.049689	0.380369	8062.057129
1953.446535	0.099781	0.380369	8164.931641
1953.447490	0.095270	0.380369	8255.914062
1953.448367	0.095262	0.380369	8339.458984
1953.449294	0.095270	0.380369	8427.774414
1953.450348	0.095372	0.380369	8528.296875
1953.451240	0.095259	0.380369	8613.267578
1953.452100	0.095233	0.380369	8695.167969
1953.453128	0.095358	0.380369	8793.195312
1953.454089	0.095255	0.380369	8884.735352
1953.454957	0.095299	0.380369	8967.455078
1954.501433	1.305454	0.323686	552.207092
1954.502440	1.803593	0.323686	2368.424805
1954.503496	1.758808	0.323686	4225.726562
1954.504396	1.705312	0.323686	5760.507812
1954.505285	1.653604	0.323686	7230.561523
1954.506403	0.590662	0.323686	7890.921387
1954.507370	0.095259	0.323686	7983.036621
1954.508236	0.095200	0.323686	8065.479980
1954.509282	0.095427	0.323686	8165.296875
1954.510305	0.095175	0.323686	8262.660156
1954.511194	0.095259	0.323686	8347.345703
1954.512134	0.095372	0.323686	8436.996094
1954.513177	0.095332	0.323686	8536.427734
1954.514106	0.095182	0.323686	8624.851562
1954.514968	0.095284	0.323686	8706.986328
1954.516021	0.095361	0.323686	8807.401367
1955.520451	1.330657	0.381565	576.174316
1955.521336	1.806628	0.381565	2175.040527
1955.522330	1.767839	0.381565	3932.272949
1955.523401	1.706730	0.381565	5760.180664
1955.524294	1.655288	0.381565	7238.353027
1955.525164	0.920255	0.381565	8038.975098
1955.526278	0.096573	0.381565	8146.558105
1955.527234	0.095380	0.381565	8237.741211
1955.528102	0.095284	0.381565	8320.448242
1955.529142	0.095435	0.381565	8419.700195
1955.530171	0.095405	0.381565	8517.872070
1955.531059	0.095328	0.381565	8602.523437
1955.531976	0.095446	0.381565	8690.046875
1955.533029	0.095413	0.381565	8790.516602
1955.533965	0.095273	0.381565	8879.692383
1955.534824	0.095336	0.381565	8961.585937
1956.579713	1.373145	0.333930	678.333374
1956.580641	1.807017	0.333930	2355.244629
1956.581501	1.768546	0.333930	3876.194336
1956.582552	1.707968	0.333930	5671.268066
1956.583571	1.650710	0.333930	7353.341797
1956.584478	0.780040	0.333930	8060.838379
1956.585464	0.097676	0.333930	8157.146484
1956.586516	0.095435	0.333930	8257.543945
1956.587428	0.095284	0.333930	8344.443359
1956.588288	0.095317	0.333930	8426.416016
1956.589385	0.095471	0.333930	8531.147461
1956.590356	0.095248	0.333930	8623.632812
1956.591233	0.095255	0.333930	8707.171875
1956.592229	0.095530	0.333930	8802.319336
1956.593284	0.095295	0.333930	8902.856445
1956.594172	0.095259	0.333930	8987.446289
1957.599993	1.374836	0.367353	666.795654
1957.600883	1.807321	0.367353	2275.311035
1957.601834	1.767327	0.367353	3956.038574
1957.602894	1.705323	0.367353	5763.681641
1957.603838	1.652626	0.367353	7323.760254
1957.604708	0.875189	0.367353	8085.174805
1957.605764	0.096837	0.367353	8187.435059
1957.606768	0.095339	0.367353	8283.156250
1957.607651	0.095266	0.367353	8367.276367
1957.608636	0.095526	0.367353	8461.369141
1957.609675	0.095427	0.367353	8560.517578
1957.610590	0.095369	0.367353	8647.780273
1957.611448	0.095402	0.367353	8729.634766
1957.612498	0.095471	0.367353	8829.879883
1957.613482	0.095361	0.367353	8923.715820
1957.614372	0.095292	0.367353	9008.525391
1958.657724	1.303418	0.335272	552.649231
1958.658743	1.803790	0.335272	2390.711426
1958.659793	1.758344	0.335272	4236.972168
1958.660679	1.705975	0.335272	5748.466309
1958.661573	1.654153	0.335272	7227.278809
1958.662687	0.630802	0.335272	7929.992187
1958.663631	0.095383	0.335272	8020.034180
1958.664489	0.095303	0.335272	8101.803711
1958.665522	0.095468	0.335272	8200.421875
1958.666568	0.095398	0.335272	8300.208008
1958.667443	0.095361	0.335272	8383.649414
1958.668390	0.095435	0.335272	8474.026367
1958.669444	0.095376	0.335272	8574.552734
1958.670386	0.095295	0.335272	8664.321289
1958.671253	0.095424	0.335272	8747.053711
1958.672309	0.095438	0.335272	8847.836914
1959.679962	1.356606	0.360409	615.899353
1959.680844	1.807082	0.360409	2209.746094
1959.681828	1.767781	0.360409	3949.242432
1959.682890	1.706111	0.360409	5761.131836
1959.683805	1.654080	0.360409	7274.614746
1959.684675	0.905797	0.360409	8062.658203
1959.685778	0.096357	0.360409	8168.940430
1959.686753	0.095281	0.360409	8261.838867
1959.687617	0.095339	0.360409	8344.211914
1959.688728	0.095413	0.360409	8450.214844
1959.689747	0.095328	0.360409	8547.354492
1959.690633	0.095343	0.360409	8631.828125
1959.691541	0.095365	0.360409	8718.419922
1959.692606	0.095460	0.360409	8820.084961
1959.693549	0.095358	0.360409	8910.006836
1959.694409	0.095288	0.360409	8991.955078
1960.736973	1.333982	0.318667	582.950134
1960.737839	1.804812	0.318667	2145.917236
1960.738943	1.761936	0.318667	4091.094727
1960.739943	1.703251	0.318667	5794.345703
1960.740849	1.652974	0.318667	7291.939941
1960.741843	0.721622	0.318667	8009.232422
1960.742890	0.095614	0.318667	8109.340332
1960.743778	0.095262	0.318667	8193.933594
1960.744659	0.095409	0.318667	8277.989258
1960.745746	0.095361	0.318667	8381.647461
1960.746712	0.095277	0.318667	8473.685547
1960.747575	0.095270	0.318667	8555.903320
1960.748608	0.095409	0.318667	8654.460937
1960.749640	0.095332	0.318667	8752.843750
1960.750521	0.095284	0.318667	8836.789062
1960.751442	0.095409	0.318667	8924.661133
1961.759009	1.407133	0.363929	721.859009
1961.759959	1.806456	0.363929	2437.992676
1961.760832	1.765774	0.363929	3979.513184
1961.761863	1.705576	0.363929	5737.962402
1961.762896	1.648275	0.363929	7440.630859
1961.763797	0.693472	0.363929	8065.448730
1961.764734	0.097002	0.363929	8156.339355
1961.765800	0.095468	0.363929	8258.107422
1961.766742	0.095354	0.363929	8347.930664
1961.767609	0.095394	0.363929	8430.637695
1961.768670	0.095457	0.363929	8531.916992
1961.769674	0.095376	0.363929	8627.674805
1961.770560	0.095292	0.363929	8712.103516
1961.771511	0.095493	0.363929	8802.917969
1961.772567	0.095402	0.363929	8903.662109
1961.773486	0.095369	0.363929	8991.305664
1962.816231	1.362737	0.324242	636.398071
1962.817109	1.807075	0.324242	2223.010010
1962.818105	1.767283	0.324242	3983.223633
1962.819173	1.704734	0.324242	5803.879395
1962.820086	1.652633	0.324242	7312.733398
1962.820952	0.881353	0.324242	8075.984863
1962.822031	0.096837	0.324242	8180.472168
1962.823009	0.095321	0.324242	8273.696289
1962.823888	0.095361	0.324242	8357.518555
1962.824869	0.095490	0.324242	8451.193359
1962.825911	0.095365	0.324242	8550.563477
1962.826824	0.095350	0.324242	8637.618164
1962.827742	0.095310	0.324242	8725.113281
1962.828623	0.095328	0.324242	8809.097656
1962.829571	0.095350	0.324242	8899.490234
1962.830497	0.095299	0.324242	8987.737305
1963.839000	1.391158	0.358362	706.708496
1963.839925	1.807064	0.358362	2378.242920
1963.840790	1.767371	0.358362	3907.018555
1963.841872	1.705646	0.358362	5752.527344
1963.842885	1.648685	0.358362	7422.645508
1963.843761	0.749689	0.358362	8079.373047
1963.844738	0.097317	0.358362	8174.451660
1963.845780	0.095350	0.358362	8273.806641
1963.846688	0.095372	0.358362	8360.404297
1963.847558	0.095402	0.358362	8443.403320
1963.848642	0.095493	0.358362	8546.917969
1963.849628	0.095292	0.358362	8640.875977
1963.850520	0.095317	0.358362	8725.899414
1963.851509	0.095453	0.358362	8820.302734
1963.852547	0.095339	0.358362	8919.264648
1963.853443	0.095317	0.358362	9004.668945
1964.894149	1.323680	0.325817	573.153625
1964.895014	1.804321	0.325817	2133.891602
1964.896087	1.764712	0.325817	4027.427246
1964.896972	1.712853	0.325817	5543.301758
1964.897846	1.663499	0.325817	6997.199219
1964.898861	0.976820	0.325817	7988.671875
1964.899779	0.100496	0.325817	8080.926758
1964.900689	0.095273	0.325817	8167.625488
1964.901567	0.095314	0.325817	8251.310547
1964.902595	0.095281	0.325817	8349.258789
1964.903494	0.095244	0.325817	8434.882812
1964.904369	0.095336	0.325817	8518.301758
1964.905306	0.095394	0.325817	8607.686523
1964.906307	0.095208	0.325817	8702.989258
1964.907236	0.095215	0.325817	8791.443359
1964.908100	0.095321	0.325817	8873.800781
1965.919207	1.359954	0.357492	632.378418
1965.920097	1.807167	0.357492	2240.756836
1965.921046	1.768883	0.357492	3919.426758
1965.922110	1.706840	0.357492	5735.503906
1965.923051	1.653688	0.357492	7291.624023
1965.923922	0.902747	0.357492	8077.916504
1965.924996	0.096844	0.357492	8181.927246
1965.925991	0.095281	0.357492	8276.731445
1965.926882	0.095354	0.357492	8361.691406
1965.927852	0.095431	0.357492	8454.259766
1965.928897	0.095391	0.357492	8553.943359
1965.929804	0.095277	0.357492	8640.359375
1965.930663	0.095380	0.357492	8722.290039
1965.931754	0.095372	0.357492	8826.340820
1965.932740	0.095284	0.357492	8920.291016
1965.933622	0.095123	0.357492	9004.189453
1966.973510	1.322036	0.341024	571.119629
1966.974372	1.804457	0.341024	2126.561523
1966.975469	1.763383	0.341024	4060.992187
1966.976374	1.709758	0.341024	5608.323242
1966.977258	1.660701	0.341024	7076.382812
1966.978257	0.910056	0.341024	7985.528809
1966.979267	0.096790	0.341024	8083.286133
1966.980159	0.095328	0.341024	8168.318848
1966.981020	0.095387	0.341024	8250.447266
1966.982133	0.095387	0.341024	8356.613281
1966.983042	0.095317	0.341024	8443.256836
1966.983921	0.095303	0.341024	8527.028320
1966.984923	0.095442	0.341024	8622.661133
1966.985914	0.095310	0.341024	8717.113281
1966.986801	0.095394	0.341024	8801.727539
1966.987658	0.095295	0.341024	8883.395508
1967.997606	1.375701	0.369952	730.497070
1967.998653	1.803373	0.369952	2618.628418
1967.999564	1.757798	0.369952	4219.982422
1968.000425	1.706272	0.369952	5689.082520
1968.001509	1.646909	0.369952	7474.332031
1968.002515	0.484779	0.369952	7962.019531
1968.003395	0.095405	0.369952	8045.976074
1968.004412	0.095427	0.369952	8143.025391
1968.005454	0.095343	0.369952	8242.373047
1968.006346	0.095321	0.369952	8327.399414
1968.007203	0.095339	0.369952	8409.105469
1968.008286	0.095350	0.369952	8512.370117
1968.009261	0.095266	0.369952	8605.254883
1968.010127	0.095292	0.369952	8687.777344
1968.011186	0.095317	0.369952	8788.718750
1968.012226	0.095372	0.369952	8887.906250
1969.052992	1.305685	0.331642	558.833069
1969.053859	1.806277	0.331642	2124.875000
1969.054875	1.767649	0.331642	3920.806152
1969.055847	1.711501	0.331642	5584.385742
1969.056727	1.661950	0.331642	7046.901367
1969.057615	1.061030	0.331642	7989.096191
1969.058723	0.099203	0.331642	8099.013184
1969.059605	0.095240	0.331642	8183.015137
1969.060464	0.095244	0.331642	8264.830078
1969.061521	0.095522	0.331642	8365.796875
1969.062475	0.095240	0.331642	8456.656250
1969.063356	0.095299	0.331642	8540.614258
1969.064212	0.095376	0.331642	8622.255859
1969.065305	0.095358	0.331642	8726.481445
1969.066196	0.095306	0.331642	8811.399414
1969.067081	0.095354	0.331642	8895.788086
1970.078359	1.395117	0.355297	704.534180
1970.079286	1.806724	0.355297	2379.366943
1970.080148	1.767374	0.355297	3902.843750
1970.081225	1.705990	0.355297	5740.194824
1970.082237	1.649183	0.355297	7409.168457
1970.083118	0.757683	0.355297	8076.687500
1970.084113	0.097489	0.355297	8173.688965
1970.085194	0.095299	0.355297	8276.707031
1970.086084	0.095240	0.355297	8361.470703
1970.086949	0.095372	0.355297	8443.967773
1970.088042	0.095453	0.355297	8548.297852
1970.089009	0.095277	0.355297	8640.430664
1970.089894	0.095328	0.355297	8724.795898
1970.090897	0.095446	0.355297	8820.527344
1970.091952	0.095361	0.355297	8921.133789
1970.092839	0.095295	0.355297	9005.661133
1971.133244	1.304828	0.317382	555.856628
1971.134286	1.804581	0.317382	2436.230225
1971.135325	1.757238	0.317382	4262.000000
1971.136220	1.704902	0.317382	5787.887695
1971.137184	1.651311	0.317382	7379.751465
1971.138241	0.561270	0.317382	7973.013184
1971.139160	0.095299	0.317382	8060.593262
1971.140028	0.095332	0.317382	8143.341309
1971.141073	0.095383	0.317382	8243.016602
1971.142088	0.095310	0.317382	8339.755859
1971.142974	0.095310	0.317382	8424.200195
1971.143943	0.095398	0.317382	8516.640625
1971.144995	0.095416	0.317382	8617.018555
1971.145922	0.095244	0.317382	8705.309570
1971.146783	0.095391	0.317382	8787.440430
1971.147871	0.095490	0.317382	8891.333008
1972.156100	1.315016	0.359176	564.141846
1972.157056	1.802948	0.359176	2287.760254
1972.158114	1.760391	0.359176	4150.253418
1972.159048	1.705858	0.359176	5743.524902
1972.159908	1.656277	0.359176	7167.922852
1972.160985	0.739391	0.359176	7964.247070
1972.162006	0.095544	0.359176	8061.797852
1972.162879	0.095226	0.359176	8144.930176
1972.163840	0.095391	0.359176	8236.600586
1972.164887	0.095416	0.359176	8336.500977
1972.165801	0.095369	0.359176	8423.667969
1972.166665	0.095343	0.359176	8506.043945
1972.167746	0.095409	0.359176	8609.180664
1972.168738	0.095339	0.359176	8703.756836
1972.169629	0.095358	0.359176	8788.720703
1972.170611	0.095394	0.359176	8882.397461
1973.211773	1.382695	0.325838	677.520691
1973.212655	1.807035	0.325838	2271.325439
1973.213612	1.767122	0.325838	3962.460937
1973.214680	1.704716	0.325838	5783.097168
1973.215611	1.652476	0.325838	7321.551758
1973.216488	0.867894	0.325838	8082.695312
1973.217566	0.096339	0.325838	8186.548828
1973.218556	0.095380	0.325838	8280.974609
1973.219447	0.095383	0.325838	8365.960937
1973.220407	0.095482	0.325838	8457.624023
1973.221457	0.095424	0.325838	8557.818359
1973.222381	0.095398	0.325838	8645.965820
1973.223243	0.095394	0.325838	8728.195312
1973.224311	0.095442	0.325838	8830.126953
1973.225307	0.095398	0.325838	8925.143555
1973.226189	0.095365	0.325838	9009.255859
1974.235211	1.337900	0.352807	588.676147
1974.236094	1.806544	0.352807	2183.854492
1974.237102	1.766840	0.352807	3964.828857
1974.238150	1.706374	0.352807	5753.109375
1974.239053	1.655061	0.352807	7247.629395
1974.239921	0.918234	0.352807	8044.656250
1974.241036	0.096863	0.352807	8152.658203
1974.242001	0.095273	0.352807	8244.596680
1974.242864	0.095321	0.352807	8326.858398
1974.243920	0.095420	0.352807	8427.622070
1974.244941	0.095376	0.352807	8525.000977
1974.245821	0.095325	0.352807	8608.886719
1974.246739	0.095332	0.352807	8696.401367
1974.247813	0.095361	0.352807	8798.819336
1974.248752	0.095266	0.352807	8888.274414
1974.249612	0.095284	0.352807	8970.218750
1975.291413	1.380941	0.321813	708.422791
1975.292299	1.807273	0.321813	2309.666748
1975.293166	1.767876	0.321813	3842.415039
1975.294281	1.705518	0.321813	5744.067383
1975.295258	1.650930	0.321813	7357.026367
1975.296129	0.836832	0.321813	8085.907227
1975.297190	0.096562	0.321813	8188.359863
1975.298217	0.095277	0.321813	8286.208984
1975.299103	0.095314	0.321813	8370.657227
1975.300042	0.095365	0.321813	8460.205078
1975.301081	0.095468	0.321813	8559.395508
1975.302015	0.095292	0.321813	8648.398437
1975.302879	0.095277	0.321813	8730.717773
1975.303926	0.095398	0.321813	8830.599609
1975.304941	0.095343	0.321813	8927.373047
1975.305815	0.095380	0.321813	9010.734375
1976.312002	1.316766	0.375922	568.843018
1976.312869	1.805251	0.375922	2133.996094
1976.313950	1.763643	0.375922	4040.493652
1976.314952	1.705393	0.375922	5749.297363
1976.315853	1.654940	0.375922	7240.398437
1976.316844	0.779183	0.375922	8012.569336
1976.317879	0.096086	0.375922	8112.018555
1976.318781	0.095383	0.375922	8198.054687
1976.319638	0.095299	0.375922	8279.725586
1976.320730	0.095486	0.375922	8383.996094
1976.321734	0.095328	0.375922	8479.706055
1976.322614	0.095321	0.375922	8563.588867
1976.323613	0.095541	0.375922	8659.034180
1976.324663	0.095376	0.375922	8759.178711
1976.325537	0.095321	0.375922	8842.489258
1976.326408	0.095424	0.375922	8925.603516
1977.371601	1.343086	0.311714	596.330200
1977.372478	1.806764	0.311714	2180.862305
1977.373474	1.766946	0.311714	3940.740234
1977.374557	1.706235	0.311714	5788.592773
1977.375435	1.654856	0.311714	7241.556152
1977.376318	0.907104	0.311714	8042.529297
1977.377419	0.096475	0.311714	8148.748047
1977.378384	0.095317	0.311714	8240.729492
1977.379250	0.095314	0.311714	8323.271484
1977.380267	0.095570	0.311714	8420.465820
1977.381311	0.095365	0.311714	8520.027344
1977.382204	0.095328	0.311714	8605.155273
1977.383131	0.095424	0.311714	8693.613281
1977.384185	0.095369	0.311714	8794.131836
1977.385132	0.095361	0.311714	8884.439453
1977.385995	0.095350	0.311714	8966.726562
1978.391292	1.380004	0.357855	670.681824
1978.392166	1.806980	0.357855	2249.982178
1978.393141	1.766847	0.357855	3972.657959
1978.394199	1.704397	0.357855	5775.910156
1978.395135	1.651882	0.357855	7322.072266
1978.396002	0.874812	0.357855	8080.534180
1978.397062	0.096691	0.357855	8183.026367
1978.398059	0.095350	0.357855	8278.090820
1978.398941	0.095240	0.357855	8362.092773
1978.399860	0.095332	0.357855	8449.703125
1978.400722	0.095435	0.357855	8531.967773
1978.401712	0.095402	0.357855	8626.415039
1978.402632	0.095299	0.357855	8714.089844
1978.403514	0.095350	0.357855	8798.188477
1978.404446	0.095295	0.357855	8887.003906
1978.405367	0.095317	0.357855	8974.791016
1979.450699	1.458691	0.299291	808.114990
1979.451632	1.806280	0.299291	2493.374512
1979.452495	1.764338	0.299291	4015.998535
1979.453561	1.703276	0.299291	5831.690918
1979.454566	1.646997	0.299291	7486.922852
1979.455456	0.686744	0.299291	8098.125488
1979.456424	0.096786	0.299291	8191.814453
1979.457471	0.095358	0.299291	8291.654297
1979.458383	0.095281	0.299291	8378.550781
1979.459242	0.095336	0.299291	8460.444336
1979.460292	0.095394	0.299291	8560.608398
1979.461293	0.095347	0.299291	8656.050781
1979.462182	0.095372	0.299291	8740.836914
1979.463137	0.095409	0.299291	8831.952148
1979.464195	0.095365	0.299291	8932.848633
1979.465112	0.095350	0.299291	9020.285156
1980.469814	1.301796	0.351764	548.055969
1980.470834	1.803889	0.351764	2388.022949
1980.471758	1.764346	0.351764	4018.278320
1980.472640	1.712963	0.351764	5529.111328
1980.473502	1.661678	0.351764	6961.478027
1980.474576	0.913770	0.351764	7942.866699
1980.475464	0.099921	0.351764	8031.596191
1980.476340	0.095317	0.351764	8115.094238
1980.477346	0.095347	0.351764	8211.012695
1980.478266	0.095229	0.351764	8298.624023
1980.479185	0.095299	0.351764	8386.204102
1980.480042	0.095339	0.351764	8467.910156
1980.481065	0.095310	0.351764	8565.412109
1980.481959	0.095321	0.351764	8650.628906
1980.482831	0.095317	0.351764	8733.746094
1980.483774	0.095387	0.351764	8823.696289
1981.530279	1.412333	0.293462	733.000671
1981.531242	1.806453	0.293462	2472.614502
1981.532106	1.765507	0.293462	3998.012207
1981.533197	1.702562	0.293462	5855.507812
1981.534227	1.645298	0.293462	7550.164551
1981.535125	0.603615	0.293462	8092.210449
1981.536047	0.096079	0.293462	8180.795410
1981.537146	0.095376	0.293462	8285.613281
1981.538067	0.095266	0.293462	8373.353516
1981.538933	0.095292	0.293462	8455.875977
1981.539965	0.095416	0.293462	8554.345703
1981.540979	0.095255	0.293462	8650.934570
1981.541873	0.095295	0.293462	8736.128906
1981.542831	0.095446	0.293462	8827.565430
1981.543883	0.095361	0.293462	8927.885742
1981.544817	0.095229	0.293462	9016.830078
1982.548407	1.301950	0.352642	546.818787
1982.549351	1.803058	0.352642	2248.905273
1982.550428	1.760010	0.352642	4144.435547
1982.551368	1.705459	0.352642	5747.566895
1982.552232	1.655698	0.352642	7178.090332
1982.553307	0.705095	0.352642	7936.067871
1982.554303	0.095577	0.352642	8031.263184
1982.555194	0.095248	0.352642	8116.128906
1982.556163	0.095321	0.352642	8208.495117
1982.557202	0.095336	0.352642	8307.548828
1982.558116	0.095347	0.352642	8394.695312
1982.558976	0.095336	0.352642	8476.683594
1982.560062	0.095435	0.352642	8580.325195
1982.561057	0.095314	0.352642	8675.162109
1982.561930	0.095328	0.352642	8758.383789
1982.562910	0.095427	0.352642	8851.902344
1983.608632	1.303641	0.291810	551.440308
1983.609649	1.804523	0.291810	2386.639893
1983.610688	1.758340	0.291810	4213.555176
1983.611583	1.705657	0.291810	5740.118164
1983.612526	1.652999	0.291810	7298.896484
1983.613600	0.590017	0.291810	7932.574707
1983.614534	0.095380	0.291810	8021.659180
1983.615402	0.095376	0.291810	8104.445312
1983.616468	0.095438	0.291810	8206.182617
1983.617486	0.095273	0.291810	8303.170898
1983.618374	0.095354	0.291810	8387.845703
1983.619348	0.095343	0.291810	8480.709961
1983.620384	0.095343	0.291810	8579.485352
1983.621299	0.095284	0.291810	8666.670898
1983.622164	0.095365	0.291810	8749.161133
1983.623235	0.095471	0.291810	8851.411133
1984.627810	1.345649	0.350430	608.233521
1984.628674	1.805742	0.350430	2168.395020
1984.629745	1.763291	0.350430	4056.879639
1984.630763	1.703998	0.350430	5791.549316
1984.631639	1.654266	0.350430	7240.686523
1984.632615	0.791935	0.350430	8013.614746
1984.633662	0.096086	0.350430	8114.217285
1984.634571	0.095288	0.350430	8200.833984
1984.635433	0.095372	0.350430	8283.044922
1984.636515	0.095416	0.350430	8386.285156
1984.637510	0.095321	0.350430	8481.129883
1984.638410	0.095273	0.350430	8566.875977
1984.639390	0.095405	0.350430	8660.373047
1984.640445	0.095332	0.350430	8760.948242
1984.641342	0.095292	0.350430	8846.424805
1984.642203	0.095380	0.350430	8928.546875
1985.688512	1.310782	0.294618	562.325684
1985.689381	1.805566	0.294618	2131.362793
1985.690415	1.767173	0.294618	3958.619629
1985.691316	1.713728	0.294618	5502.688477
1985.692194	1.664612	0.294618	6964.217773
1985.693101	1.118716	0.294618	7978.893066
1985.694107	0.102356	0.294618	8081.863281
1985.695025	0.095273	0.294618	8169.324219
1985.695900	0.095354	0.294618	8252.758789
1985.696905	0.095343	0.294618	8348.578125
1985.697809	0.095376	0.294618	8434.797852
1985.698734	0.095339	0.294618	8522.986328
1985.699594	0.095427	0.294618	8605.053711
1985.700598	0.095358	0.294618	8700.792969
1985.701494	0.095321	0.294618	8786.200195
1985.702373	0.095347	0.294618	8870.009766
1986.706458	1.391627	0.357154	708.338257
1986.707426	1.806105	0.357154	2456.647705
1986.708289	1.765477	0.357154	3980.254639
1986.709328	1.704767	0.357154	5751.507324
1986.710377	1.646580	0.357154	7478.769531
1986.711277	0.647216	0.357154	8061.263672
1986.712208	0.096530	0.357154	8151.132812
1986.713284	0.095361	0.357154	8253.741211
1986.714225	0.095251	0.357154	8343.373047
1986.715089	0.095325	0.357154	8425.733398
1986.716130	0.095431	0.357154	8525.077148
1986.717158	0.095350	0.357154	8623.097656
1986.718049	0.095310	0.357154	8708.018555
1986.719010	0.095438	0.357154	8799.734375
1986.720063	0.095405	0.357154	8900.196289
1986.720991	0.095358	0.357154	8988.688477
1987.767020	1.366600	0.298880	645.035400
1987.767902	1.806881	0.298880	2238.704590
1987.768766	1.772161	0.298880	3769.851562
1987.769832	1.711073	0.298880	5593.855469
1987.770778	1.657815	0.298880	7162.148437
1987.771661	1.032913	0.298880	8074.210449
1987.772616	0.106538	0.298880	8175.954102
1987.773658	0.095266	0.298880	8275.221680
1987.774555	0.095292	0.298880	8360.698242
1987.775413	0.095255	0.298880	8442.426758
1987.776449	0.095398	0.298880	8541.258789
1987.777404	0.095273	0.298880	8632.245117
1987.778280	0.095270	0.298880	8715.701172
1987.779210	0.095332	0.298880	8804.360352
1987.780259	0.095295	0.298880	8904.325195
1987.781154	0.095288	0.298880	8989.608398
1988.786580	1.391173	0.350745	698.368835
1988.787496	1.806632	0.350745	2353.243896
1988.788359	1.767250	0.350745	3878.380371
1988.789461	1.705086	0.350745	5757.384766
1988.790465	1.647957	0.350745	7411.933105
1988.791353	0.742690	0.350745	8071.442383
1988.792372	0.096863	0.350745	8170.145508
1988.793425	0.095270	0.350745	8270.464844
1988.794309	0.095240	0.350745	8354.657227
1988.795166	0.095350	0.350745	8436.372070
1988.796278	0.095325	0.350745	8542.373047
1988.797231	0.095262	0.350745	8633.158203
1988.798094	0.095284	0.350745	8715.388672
1988.799108	0.095380	0.350745	8812.103516
1988.800151	0.095303	0.350745	8911.503906
1988.801040	0.095325	0.350745	8996.248047
1989.845176	1.306930	0.290509	551.524414
1989.846236	1.804362	0.290509	2464.147705
1989.847175	1.760845	0.290509	4117.581055
1989.848058	1.709531	0.290509	5627.097168
1989.848993	1.657064	0.290509	7176.452148
1989.850045	0.746400	0.290509	7961.665039
1989.850941	0.096661	0.290509	8048.273437
1989.851803	0.095281	0.290509	8130.405273
1989.852842	0.095387	0.290509	8229.512695
1989.853809	0.095266	0.290509	8321.634766
1989.854685	0.095273	0.290509	8405.094727
1989.855571	0.095361	0.290509	8489.584961
1989.856655	0.095328	0.290509	8592.920898
1989.857539	0.095233	0.290509	8677.107422
1989.858400	0.095295	0.290509	8759.157227
1989.859442	0.095427	0.290509	8858.592773
1990.866215	1.414036	0.342148	738.126648
1990.867161	1.806149	0.342148	2446.743408
1990.868025	1.764943	0.342148	3971.653809
1990.869101	1.704097	0.342148	5805.261719
1990.870118	1.646825	0.342148	7480.082520
1990.870998	0.684342	0.342148	8082.303711
1990.871966	0.096716	0.342148	8175.925293
1990.873021	0.095369	0.342148	8276.539062
1990.873934	0.095317	0.342148	8363.563477
1990.874798	0.095402	0.342148	8445.990234
1990.875861	0.095460	0.342148	8547.464844
1990.876858	0.095248	0.342148	8642.426758
1990.877751	0.095299	0.342148	8727.529297
1990.878735	0.095369	0.342148	8821.372070
1990.879786	0.095358	0.342148	8921.592773
1990.880694	0.095222	0.342148	9008.054687
1991.924176	1.325402	0.287315	584.502136
1991.925037	1.805273	0.287315	2138.842529
1991.926127	1.763749	0.287315	4061.328613
1991.927043	1.709018	0.287315	5626.789551
1991.927928	1.659661	0.287315	7095.589355
1991.928883	0.959062	0.287315	8011.494141
1991.929910	0.097496	0.287315	8111.623047
1991.930805	0.095303	0.287315	8196.918945
1991.931667	0.095409	0.287315	8279.161133
1991.932717	0.095365	0.287315	8379.293945
1991.933665	0.095288	0.287315	8469.626953
1991.934544	0.095295	0.287315	8553.391602
1991.935469	0.095435	0.287315	8641.668945
1991.936516	0.095306	0.287315	8741.455078
1991.937392	0.095347	0.287315	8824.978516
1991.938250	0.095347	0.287315	8906.786133
1992.946315	1.373331	0.330144	686.665649
1992.947202	1.807064	0.330144	2289.531738
1992.948064	1.768462	0.330144	3813.945801
1992.949179	1.706323	0.330144	5716.496094
1992.950134	1.653083	0.330144	7295.190918
1992.951001	0.908976	0.330144	8083.272949
1992.952059	0.097368	0.330144	8186.288574
1992.953092	0.095248	0.330144	8284.679687
1992.953973	0.095233	0.330144	8368.580078
1992.954895	0.095376	0.330144	8456.516602
1992.955971	0.095339	0.330144	8559.101562
1992.956911	0.095321	0.330144	8648.703125
1992.957770	0.095321	0.330144	8730.583984
1992.958802	0.095391	0.330144	8829.027344
1992.959820	0.095347	0.330144	8926.089844
1992.960710	0.095288	0.330144	9010.896484
1994.003519	1.307402	0.295734	555.645935
1994.004396	1.806075	0.295734	2139.574219
1994.005362	1.770952	0.295734	3850.313965
1994.006395	1.709941	0.295734	5616.683594
1994.007289	1.659382	0.295734	7100.171387
1994.008161	1.091920	0.295734	8052.325684
1994.009230	0.099833	0.295734	8159.046875
1994.010161	0.093270	0.295734	8245.881836
1994.011040	0.094863	0.295734	8329.266602
1994.012000	0.095343	0.295734	8420.795898
1994.013031	0.095273	0.295734	8519.022461
1994.013920	0.095325	0.295734	8603.766602
1994.014779	0.095332	0.295734	8685.657227
1994.015829	0.095361	0.295734	8785.787109
1994.016769	0.095226	0.295734	8875.299805
1994.017633	0.095281	0.295734	8957.622070
1995.024597	1.327116	0.341814	599.856201
1995.025685	1.803160	0.341814	2561.694580
1995.026634	1.757194	0.341814	4229.271484
1995.027498	1.706752	0.341814	5703.904785
1995.028536	1.649136	0.341814	7415.708008
1995.029580	0.532980	0.341814	7972.138672
1995.030456	0.095376	0.341814	8055.687988
1995.031395	0.095350	0.341814	8145.222168
1995.032463	0.095303	0.341814	8247.005859
1995.033411	0.095200	0.341814	8337.255859
1995.034277	0.095189	0.341814	8419.689453
1995.035318	0.095306	0.341814	8518.903320
1995.036335	0.095292	0.341814	8615.815430
1995.037225	0.095229	0.341814	8700.569336
1995.038176	0.095376	0.341814	8791.271484
1995.039232	0.095347	0.341814	8891.958008
1996.081332	1.304872	0.299670	546.741272
1996.082387	1.804259	0.299670	2450.234619
1996.083333	1.760936	0.299670	4116.080078
1996.084216	1.709674	0.299670	5625.722168
1996.085191	1.655610	0.299670	7239.942383
1996.086217	0.707278	0.299670	7965.609375
1996.087107	0.096519	0.299670	8051.510742
1996.087967	0.095266	0.299670	8133.439453
1996.089042	0.095317	0.299670	8235.905273
1996.089979	0.095251	0.299670	8325.156250
1996.090852	0.095314	0.299670	8408.365234
1996.091799	0.095369	0.299670	8498.679687
1996.092829	0.095299	0.299670	8596.837891
1996.093715	0.095251	0.299670	8681.230469
1996.094571	0.095317	0.299670	8762.822266
1996.095629	0.095372	0.299670	8863.726562
1997.104949	1.440875	0.341363	775.190857
1997.106000	1.803160	0.341363	2670.312256
1997.106898	1.756912	0.341363	4248.019043
1997.107831	1.702712	0.341363	5836.649414
1997.108894	1.643236	0.341363	7583.409180
1997.109855	0.460126	0.341363	8025.589844
1997.110714	0.095369	0.341363	8107.511719
1997.111772	0.095435	0.341363	8208.481445
1997.112780	0.095354	0.341363	8304.598633
1997.113673	0.095262	0.341363	8389.667969
1997.114628	0.095387	0.341363	8480.762695
1997.115678	0.095358	0.341363	8580.888672
1997.116589	0.095321	0.341363	8667.726562
1997.117446	0.095306	0.341363	8749.404297
1997.118517	0.095468	0.341363	8851.650391
1997.119519	0.095295	0.341363	8947.136719
1998.159826	1.334605	0.303295	597.902832
1998.160711	1.806145	0.303295	2196.341309
1998.161574	1.773047	0.303295	3726.480713
1998.162629	1.713435	0.303295	5534.154785
1998.163510	1.662946	0.303295	6999.209961
1998.164392	1.198118	0.303295	8055.949707
1998.165354	0.121941	0.303295	8173.256836
1998.166312	0.095295	0.303295	8264.549805
1998.167235	0.095259	0.303295	8352.473633
1998.168109	0.095332	0.303295	8435.793945
1998.169136	0.095299	0.303295	8533.666016
1998.170034	0.095376	0.303295	8619.313477
1998.170910	0.095259	0.303295	8702.759766
1998.171785	0.095306	0.303295	8786.153320
1998.172827	0.095229	0.303295	8885.382812
1998.173710	0.095266	0.303295	8969.502930
1999.184414	1.366084	0.335163	717.194092
1999.185486	1.802234	0.335163	2649.188965
1999.186407	1.755586	0.335163	4266.083496
1999.187274	1.703826	0.335163	5743.300293
1999.188346	1.645360	0.335163	7507.126465
1999.189346	0.456779	0.335163	7963.905273
1999.190220	0.095270	0.335163	8047.170898
1999.191226	0.095336	0.335163	8143.078613
1999.192273	0.095361	0.335163	8242.921875
1999.193171	0.095208	0.335163	8328.417969
1999.194030	0.095442	0.335163	8410.402344
1999.195102	0.095471	0.335163	8512.747070
1999.196092	0.095365	0.335163	8607.158203
1999.196982	0.095350	0.335163	8692.019531
1999.197958	0.095413	0.335163	8785.142578
1999.198994	0.095387	0.335163	8883.963867
2000.238883	1.406657	0.288636	728.648071
2000.239778	1.807159	0.288636	2346.055664
2000.240643	1.766459	0.288636	3874.042480
2000.241764	1.703752	0.288636	5783.949219
2000.242740	1.649930	0.288636	7394.281250
2000.243621	0.788101	0.288636	8088.597656
2000.244699	0.095896	0.288636	8191.973633
2000.245720	0.095405	0.288636	8289.382812
2000.246621	0.095240	0.288636	8375.194336
2000.247565	0.095358	0.288636	8465.211914
2000.248615	0.095380	0.288636	8565.360352
2000.249546	0.095314	0.288636	8654.097656
2000.250406	0.095303	0.288636	8736.057617
2000.251459	0.095369	0.288636	8836.480469
2000.252476	0.095299	0.288636	8933.399414
2000.253358	0.095332	0.288636	9017.482422
2001.263422	1.312676	0.344622	557.887207
2001.264418	1.803355	0.344622	2354.028320
2001.265488	1.758332	0.344622	4235.444336
2001.266386	1.704752	0.344622	5766.311523
2001.267271	1.653409	0.344622	7229.579102
2001.268368	0.627583	0.344622	7918.037598
2001.269332	0.095273	0.344622	8009.881348
2001.270196	0.095211	0.344622	8092.144043
2001.271235	0.095306	0.344622	8191.167480
2001.272256	0.095277	0.344622	8288.445312
2001.273140	0.095240	0.344622	8372.637695
2001.274064	0.095219	0.344622	8460.619141
2001.275118	0.095376	0.344622	8561.145508
2001.276059	0.095164	0.344622	8650.694336
2001.276916	0.095222	0.344622	8732.299805
2001.277928	0.095284	0.344622	8828.727539
2002.317324	1.354559	0.290465	682.697876
2002.318375	1.803234	0.290465	2577.896484
2002.319322	1.756282	0.290465	4241.095215
2002.320190	1.705426	0.290465	5721.404785
2002.321261	1.646320	0.290465	7484.613281
2002.322278	0.462883	0.290465	7955.365723
2002.323159	0.095292	0.290465	8039.317871
2002.324128	0.095343	0.290465	8131.705078
2002.325174	0.095328	0.290465	8231.418945
2002.326096	0.095262	0.290465	8319.250977
2002.326953	0.095314	0.290465	8400.934570
2002.328010	0.095383	0.290465	8501.754883
2002.329015	0.095270	0.290465	8597.500977
2002.329887	0.095288	0.290465	8680.591797
2002.330867	0.095405	0.290465	8774.088867
2002.331915	0.095343	0.290465	8874.008789
2003.342817	1.349388	0.327719	605.875427
2003.343681	1.804460	0.327719	2164.929199
2003.344788	1.761130	0.327719	4114.500488
2003.345757	1.705067	0.327719	5766.710449
2003.346620	1.655867	0.327719	7195.723633
2003.347667	0.713848	0.327719	7943.122070
2003.348713	0.095566	0.327719	8043.084473
2003.349598	0.095328	0.327719	8127.450195
2003.350527	0.095277	0.327719	8215.962891
2003.351584	0.095420	0.327719	8316.821289
2003.352533	0.095248	0.327719	8407.211914
2003.353402	0.095284	0.327719	8490.013672
2003.354440	0.095460	0.327719	8589.101562
2003.355454	0.095299	0.327719	8685.734375
2003.356345	0.095259	0.327719	8770.610352
2003.357306	0.095427	0.327719	8862.316406
2004.397639	1.439030	0.278646	792.905273
2004.398675	1.803358	0.278646	2661.184326
2004.399552	1.757944	0.278646	4202.901367
2004.400520	1.702613	0.278646	5851.031250
2004.401587	1.642617	0.278646	7603.704102
2004.402518	0.476609	0.278646	8047.426758
2004.403386	0.095446	0.278646	8130.273437
2004.404443	0.095347	0.278646	8231.054687
2004.405441	0.095270	0.278646	8326.133789
2004.406334	0.095295	0.278646	8411.232422
2004.407297	0.095416	0.278646	8503.118164
2004.408349	0.095372	0.278646	8603.450195
2004.409266	0.095288	0.278646	8690.829102
2004.410127	0.095292	0.278646	8772.875000
2004.411216	0.095402	0.278646	8876.767578
2004.412187	0.095299	0.278646	8969.302734
2005.420821	1.397798	0.331791	715.672485
2005.421857	1.804281	0.331791	2584.907715
2005.422747	1.759849	0.331791	4151.172852
2005.423685	1.705540	0.331791	5750.968750
2005.424745	1.646331	0.331791	7496.079102
2005.425687	0.592694	0.331791	8054.396973
2005.426550	0.095995	0.331791	8137.240723
2005.427608	0.095413	0.331791	8238.187500
2005.428617	0.095226	0.331791	8334.270508
2005.429497	0.095251	0.331791	8418.091797
2005.430479	0.095343	0.331791	8511.718750
2005.431524	0.095339	0.331791	8611.348633
2005.432445	0.095240	0.331791	8699.065430
2005.433300	0.095306	0.331791	8780.552734
2005.434359	0.095354	0.331791	8881.532227
2005.435365	0.095314	0.331791	8977.417969
2006.475835	1.309464	0.282352	555.212769
2006.476699	1.803457	0.282352	2113.399658
2006.477843	1.760416	0.282352	4127.315918
2006.478812	1.704368	0.282352	5778.848145
2006.479685	1.655391	0.282352	7224.003906
2006.480735	0.700756	0.282352	7959.797363
2006.481765	0.095592	0.282352	8058.257324
2006.482659	0.095240	0.282352	8143.402344
2006.483596	0.095435	0.282352	8232.824219
2006.484648	0.095391	0.282352	8333.174805
2006.485584	0.095266	0.282352	8422.343750
2006.486441	0.095328	0.282352	8504.040039
2006.487491	0.095347	0.282352	8604.154297
2006.488519	0.095314	0.282352	8702.136719
2006.489396	0.095277	0.282352	8785.694336
2006.490341	0.095314	0.282352	8875.765625
2007.499461	1.314895	0.332416	561.460205
2007.500477	1.803076	0.332416	2393.385742
2007.501541	1.757256	0.332416	4263.105957
2007.502424	1.704661	0.332416	5768.321289
2007.503306	1.653226	0.332416	7226.466797
2007.504412	0.623500	0.332416	7916.057617
2007.505367	0.095405	0.332416	8007.169434
2007.506228	0.095270	0.332416	8089.196777
2007.507276	0.095391	0.332416	8189.166016
2007.508299	0.095361	0.332416	8286.720703
2007.509187	0.095317	0.332416	8371.362305
2007.510112	0.095343	0.332416	8459.554687
2007.511172	0.095339	0.332416	8560.614258
2007.512106	0.095292	0.332416	8649.617187
2007.512974	0.095358	0.332416	8732.387695
2007.514004	0.095424	0.332416	8830.673828
2008.555224	1.335384	0.276358	592.910706
2008.556125	1.806207	0.276358	2220.303467
2008.557015	1.771370	0.276358	3796.822266
2008.558022	1.713633	0.276358	5522.450684
2008.558934	1.660488	0.276358	7036.815918
2008.559863	1.075049	0.276358	8035.536133
2008.560724	0.109017	0.276358	8129.399902
2008.561785	0.095310	0.276358	8230.523437
2008.562680	0.095255	0.276358	8315.776367
2008.563556	0.095270	0.276358	8399.232422
2008.564559	0.095394	0.276358	8494.913086
2008.565492	0.095262	0.276358	8583.792969
2008.566416	0.095317	0.276358	8671.866211
2008.567278	0.095405	0.276358	8754.105469
2008.568308	0.095295	0.276358	8852.259766
2008.569181	0.095277	0.276358	8935.436523
2009.577733	1.375529	0.322869	682.262146
2009.578657	1.806621	0.322869	2351.580078
2009.579525	1.767524	0.322869	3885.791260
2009.580610	1.705770	0.322869	5736.551758
2009.581619	1.648762	0.322869	7400.152832
2009.582517	0.741727	0.322869	8066.224121
2009.583486	0.097159	0.322869	8160.371582
2009.584534	0.095424	0.322869	8260.375977
2009.585444	0.095303	0.322869	8347.101562
2009.586304	0.095339	0.322869	8429.093750
2009.587366	0.095464	0.322869	8530.476562
2009.588354	0.095369	0.322869	8624.701172
2009.589251	0.095409	0.322869	8710.283203
2009.590246	0.095438	0.322869	8805.244141
2009.591293	0.095361	0.322869	8905.087891
2009.592184	0.095262	0.322869	8989.966797
2010.634143	1.404254	0.279182	721.786621
2010.635099	1.806086	0.279182	2448.405273
2010.635966	1.765342	0.279182	3978.956543
2010.637013	1.705034	0.279182	5764.127441
2010.638036	1.648158	0.279182	7450.192871
2010.638926	0.712452	0.279182	8084.275391
2010.639840	0.096409	0.279182	8172.393066
2010.640706	0.095262	0.279182	8254.890625
2010.641677	0.095255	0.279182	8347.383789
2010.642595	0.095270	0.279182	8434.841797
2010.643484	0.095328	0.279182	8519.588867
2010.644462	0.095376	0.279182	8612.866211
2010.645382	0.095310	0.279182	8700.551758
2010.646304	0.095310	0.279182	8788.427734
2010.647186	0.095295	0.279182	8872.478516
2010.648141	0.095354	0.279182	8963.541992
2011.655873	1.310936	0.323614	558.458862
2011.656915	1.804138	0.323614	2438.370850
2011.657942	1.756831	0.323614	4242.636230
2011.658831	1.705031	0.323614	5758.408203
2011.659793	1.652018	0.323614	7347.649414
2011.660859	0.583143	0.323614	7969.280273
2011.661785	0.095446	0.323614	8057.663086
2011.662642	0.095354	0.323614	8139.381348
2011.663710	0.095328	0.323614	8241.192383
2011.664718	0.095310	0.323614	8337.264648
2011.665589	0.095240	0.323614	8420.218750
2011.666550	0.095303	0.323614	8511.804687
2011.667609	0.095347	0.323614	8612.776367
2011.668523	0.095314	0.323614	8699.893555
2011.669392	0.095306	0.323614	8782.714844
2011.670473	0.095347	0.323614	8885.784180
2012.713117	1.376125	0.280753	722.465881
2012.714170	1.803219	0.280753	2621.255371
2012.715094	1.756582	0.280753	4244.336914
2012.715966	1.704368	0.280753	5730.545410
2012.717054	1.645301	0.280753	7520.633301
2012.718047	0.447246	0.280753	7964.748535
2012.718937	0.095332	0.280753	8049.594238
2012.719948	0.095405	0.280753	8146.048828
2012.720986	0.095365	0.280753	8245.038086
2012.721874	0.095303	0.280753	8329.666992
2012.722785	0.095262	0.280753	8416.451172
2012.723658	0.095365	0.280753	8499.705078
2012.724605	0.095204	0.280753	8589.863281
2012.725547	0.095387	0.280753	8679.717773
2012.726474	0.095350	0.280753	8768.107422
2012.727352	0.095325	0.280753	8851.802734
2013.734395	1.381337	0.310945	660.278931
2013.735282	1.806779	0.310945	2262.891602
2013.736238	1.767099	0.310945	3952.238770
2013.737299	1.704763	0.310945	5760.992676
2013.738232	1.652736	0.310945	7302.995117
2013.739107	0.883513	0.310945	8076.069336
2013.740160	0.096647	0.310945	8177.838379
2013.741165	0.095292	0.310945	8273.606445
2013.742058	0.095295	0.310945	8358.705078
2013.743030	0.095347	0.310945	8451.381836
2013.744076	0.095336	0.310945	8551.102539
2013.745001	0.095328	0.310945	8639.281250
2013.745866	0.095365	0.310945	8721.771484
2013.746947	0.095482	0.310945	8824.987305
2013.747924	0.095251	0.310945	8918.047852
2013.748816	0.095339	0.310945	9003.090820
