time (s)	coil I (A)	last det (V)	int current (uC)
2185.745083	1.301906	0.318820	549.404114
2185.746129	1.804838	0.318820	2437.264160
2185.747161	1.757593	0.318820	4251.099609
2185.748057	1.704738	0.318820	5778.544434
2185.749005	1.652527	0.318820	7345.139648
2185.750064	1.595702	0.318820	9034.988281
2185.751006	1.548040	0.318820	10493.241211
2185.751870	1.505006	0.318820	11793.566406
2185.752945	1.455571	0.318820	13358.305664
2185.753951	1.411069	0.318820	14777.841797
2185.754843	0.791012	0.318820	15483.424805
2185.755822	0.099452	0.318820	15580.788086
2185.756872	0.095394	0.318820	15680.952148
2185.757786	0.095237	0.318820	15767.999023
2185.758643	0.095420	0.318820	15849.773437
2185.759704	0.095398	0.318820	15950.990234
2185.760691	0.095372	0.318820	16045.123047
2185.761589	0.095317	0.318820	16130.717773
2185.762572	0.095409	0.318820	16224.504883
2185.763633	0.095361	0.318820	16325.683594
2185.764533	0.095270	0.318820	16411.425781
2186.757588	1.333799	0.391350	596.208069
2186.758455	1.805610	0.391350	2161.672119
2186.759528	1.763745	0.391350	4054.170410
2186.760536	1.704917	0.391350	5772.726562
2186.761422	1.654995	0.391350	7239.052246
2186.762400	1.603751	0.391350	8807.520508
2186.763455	1.549669	0.391350	10442.421875
2186.764372	1.504270	0.391350	11821.837891
2186.765236	1.462482	0.391350	13085.421875
2186.766301	1.415790	0.391350	14593.238281
2186.767304	0.790682	0.391350	15386.292969
2186.768191	0.098785	0.391350	15473.916016
2186.769178	0.095420	0.391350	15568.095703
2186.770229	0.095251	0.391350	15668.205078
2186.771127	0.095208	0.391350	15753.701172
2186.771988	0.095369	0.391350	15835.813477
2186.773087	0.095354	0.391350	15940.607422
2186.774051	0.095175	0.391350	16032.355469
2186.774917	0.095321	0.391350	16114.903320
2186.775987	0.095350	0.391350	16216.927734
2186.777026	0.095292	0.391350	16315.935547
2187.823124	1.389628	0.329116	704.541260
2187.824057	1.807057	0.329116	2390.525391
2187.824924	1.767762	0.329116	3923.175293
2187.825974	1.706979	0.329116	5715.502930
2187.827004	1.649572	0.329116	7414.561523
2187.827898	1.601257	0.329116	8846.085937
2187.828859	1.553470	0.329116	10338.970703
2187.829909	1.501362	0.329116	11915.401367
2187.830855	1.457472	0.329116	13294.169922
2187.831719	1.418273	0.329116	14519.557617
2187.832802	0.772079	0.329116	15355.718750
2187.833782	0.096427	0.329116	15450.216797
2187.834673	0.095197	0.329116	15535.037109
2187.835660	0.095431	0.329116	15629.227539
2187.836707	0.095284	0.329116	15728.990234
2187.837614	0.095314	0.329116	15815.439453
2187.838471	0.095233	0.329116	15897.054687
2187.839552	0.095442	0.329116	16000.227539
2187.840536	0.095310	0.329116	16094.012695
2187.841410	0.095281	0.329116	16177.288086
2187.842384	0.095431	0.329116	16270.238281
2188.839953	1.389239	0.391519	702.955139
2188.840845	1.807002	0.391519	2314.800781
2188.841713	1.768231	0.391519	3849.625488
2188.842815	1.706290	0.391519	5729.957520
2188.843802	1.650330	0.391519	7358.833008
2188.844692	1.603550	0.391519	8785.992187
2188.845677	1.553265	0.391519	10315.958984
2188.846737	1.502113	0.391519	11908.199219
2188.847630	1.459647	0.391519	13211.664062
2188.848523	1.418375	0.391519	14478.273437
2188.849640	0.762169	0.391519	15329.616211
2188.850603	0.096500	0.391519	15422.545898
2188.851463	0.095211	0.391519	15504.427734
2188.852516	0.095306	0.391519	15604.785156
2188.853534	0.095167	0.391519	15701.665039
2188.854419	0.095112	0.391519	15785.839844
2188.855358	0.095295	0.391519	15875.322266
2188.856417	0.095284	0.391519	15976.228516
2188.857341	0.095215	0.391519	16064.207031
2188.858202	0.095178	0.391519	16146.155273
2188.859247	0.095376	0.391519	16245.823242
2189.900082	1.389130	0.305551	757.075684
2189.900962	1.806720	0.305551	2346.989258
2189.901881	1.766001	0.305551	3969.944336
2189.902759	1.714471	0.305551	5475.250000
2189.903722	1.659675	0.305551	7073.517090
2189.904651	1.610039	0.305551	8569.243164
2189.905533	1.564984	0.305551	9949.558594
2189.906522	1.517787	0.305551	11450.649414
2189.907453	1.471564	0.305551	12820.674805
2189.908378	1.431152	0.305551	14144.490234
2189.909239	1.287125	0.305551	15252.705078
2189.910284	0.158954	0.305551	15418.811523
2189.911164	0.095284	0.305551	15502.662109
2189.912063	0.095270	0.305551	15588.309570
2189.912937	0.095394	0.305551	15671.684570
2189.913921	0.095284	0.305551	15765.444336
2189.914842	0.095358	0.305551	15853.268555
2189.915714	0.095292	0.305551	15936.363281
2189.916726	0.095413	0.305551	16032.920898
2189.917645	0.095251	0.305551	16120.457031
2189.918569	0.095354	0.305551	16208.564453
2190.920157	1.355867	0.355381	612.851807
2190.921039	1.806705	0.355381	2206.365967
2190.922037	1.767341	0.355381	3970.172607
2190.923095	1.705657	0.355381	5774.757324
2190.923995	1.653911	0.355381	7263.277344
2190.924857	1.606377	0.355381	8647.974609
2190.925953	1.552500	0.355381	10349.514648
2190.926944	1.502816	0.355381	11838.805664
2190.927826	1.462500	0.355381	13128.730469
2190.928846	1.417672	0.355381	14574.755859
2190.929900	0.772786	0.355381	15389.271484
2190.930782	0.098167	0.355381	15475.854492
2190.931665	0.095303	0.355381	15560.006836
2190.932757	0.095350	0.355381	15664.129883
2190.933711	0.095240	0.355381	15754.989258
2190.934581	0.095339	0.355381	15837.934570
2190.935600	0.095383	0.355381	15935.129883
2190.936627	0.095317	0.355381	16033.020508
2190.937518	0.095237	0.355381	16117.876953
2190.938441	0.095281	0.355381	16205.821289
2190.939509	0.095424	0.355381	16307.733398
2191.978419	1.305564	0.323275	545.725769
2191.979496	1.804175	0.323275	2488.822021
2191.980430	1.760526	0.323275	4133.153320
2191.981313	1.709414	0.323275	5642.565918
2191.982282	1.655552	0.323275	7246.795898
2191.983311	1.600254	0.323275	8893.457031
2191.984208	1.553730	0.323275	10287.153320
2191.985078	1.510990	0.323275	11601.714844
2191.986151	1.461127	0.323275	13169.503906
2191.987086	1.419668	0.323275	14496.893555
2191.987964	1.080930	0.323275	15445.950195
2191.988972	0.121776	0.323275	15568.700195
2191.989988	0.095229	0.323275	15665.453125
2191.990879	0.095314	0.323275	15750.377930
2191.991734	0.095262	0.323275	15831.827148
2191.992769	0.095299	0.323275	15930.461914
2191.993708	0.095211	0.323275	16019.865234
2191.994586	0.095175	0.323275	16103.428711
2191.995532	0.095244	0.323275	16193.529297
2191.996557	0.095365	0.323275	16291.278320
2191.997451	0.095303	0.323275	16376.478516
2193.001771	1.383175	0.356038	739.998718
2193.002831	1.802516	0.356038	2650.665527
2193.003748	1.755758	0.356038	4260.695801
2193.004615	1.703793	0.356038	5737.883789
2193.005696	1.645562	0.356038	7516.735840
2193.006688	1.592314	0.356038	9096.311523
2193.007571	1.547175	0.356038	10462.466797
2193.008578	1.499575	0.356038	11972.539062
2193.009632	1.450642	0.356038	13501.515625
2193.010526	1.410520	0.356038	14762.520508
2193.011401	0.764114	0.356038	15431.120117
2193.012493	0.095958	0.356038	15535.906250
2193.013457	0.095233	0.356038	15627.710937
2193.014323	0.095259	0.356038	15710.205078
2193.015343	0.095343	0.356038	15807.455078
2193.016391	0.095295	0.356038	15907.324219
2193.017280	0.095215	0.356038	15991.970703
2193.018202	0.095317	0.356038	16079.853516
2193.019264	0.095391	0.356038	16181.158203
2193.020211	0.095164	0.356038	16271.278320
2193.021077	0.095222	0.356038	16353.740234
2194.058562	1.452257	0.312810	801.645874
2194.059634	1.802501	0.312810	2733.927246
2194.060513	1.756029	0.312810	4277.476562
2194.061445	1.701698	0.312810	5863.458984
2194.062517	1.641951	0.312810	7623.629883
2194.063468	1.592010	0.312810	9137.631836
2194.064340	1.547000	0.312810	10486.615234
2194.065382	1.496788	0.312810	12046.268555
2194.066402	1.449844	0.312810	13525.109375
2194.067303	1.410044	0.312810	14795.558594
2194.068265	0.699415	0.312810	15468.396484
2194.069317	0.095544	0.312810	15568.909180
2194.070243	0.095208	0.312810	15657.071289
2194.071102	0.095178	0.312810	15738.829102
2194.072174	0.095380	0.312810	15841.076172
2194.073168	0.095354	0.312810	15935.858398
2194.074059	0.095339	0.312810	16020.805664
2194.075042	0.095281	0.312810	16114.466797
2194.076085	0.095343	0.312810	16213.909180
2194.076988	0.095193	0.312810	16299.868164
2194.077848	0.095343	0.312810	16381.863281
2195.081914	1.307227	0.357226	554.264038
2195.082948	1.805636	0.357226	2421.291748
2195.083845	1.764532	0.357226	4004.077393
2195.084770	1.711201	0.357226	5586.938477
2195.085638	1.661221	0.357226	7028.877930
2195.086642	1.608369	0.357226	8643.680664
2195.087568	1.561366	0.357226	10089.505859
2195.088441	1.518003	0.357226	11414.722656
2195.089498	1.468480	0.357226	12966.906250
2195.090375	1.427900	0.357226	14219.174805
2195.091295	1.243008	0.357226	15362.742187
2195.092183	0.170255	0.357226	15513.928711
2195.093134	0.095153	0.357226	15604.418945
2195.094085	0.095226	0.357226	15694.978516
2195.094973	0.095299	0.357226	15779.604492
2195.095953	0.095350	0.357226	15873.047852
2195.096886	0.095226	0.357226	15961.893555
2195.097808	0.095215	0.357226	16049.681641
2195.098671	0.095328	0.357226	16131.950195
2195.099701	0.095299	0.357226	16230.108398
2195.100584	0.095171	0.357226	16314.144531
2196.137406	1.303868	0.330261	554.144104
2196.138450	1.804171	0.330261	2437.698730
2196.139487	1.756926	0.330261	4259.631348
2196.140366	1.704924	0.330261	5758.259766
2196.141333	1.651388	0.330261	7355.151855
2196.142392	1.594504	0.330261	9043.732422
2196.143322	1.547589	0.330261	10482.990234
2196.144195	1.504244	0.330261	11796.195312
2196.145244	1.455663	0.330261	13323.185547
2196.146253	1.410809	0.330261	14746.692383
2196.147157	0.787383	0.330261	15458.486328
2196.148112	0.099177	0.330261	15553.200195
2196.149177	0.095303	0.330261	15654.697266
2196.150097	0.095197	0.330261	15742.278320
2196.150960	0.095270	0.330261	15824.496094
2196.152042	0.095365	0.330261	15927.680664
2196.153017	0.095208	0.330261	16020.507812
2196.153904	0.095244	0.330261	16104.989258
2196.154891	0.095435	0.330261	16199.183594
2196.155937	0.095288	0.330261	16298.854492
2196.156835	0.095328	0.330261	16384.458984
2197.162566	1.429721	0.364127	774.908508
2197.163454	1.806625	0.364127	2379.191162
2197.164327	1.767905	0.364127	3922.572510
2197.165188	1.714149	0.364127	5398.455078
2197.166243	1.657148	0.364127	7146.746582
2197.167141	1.609303	0.364127	8591.900391
2197.168024	1.563582	0.364127	9972.542969
2197.169021	1.515461	0.364127	11483.458008
2197.169960	1.469714	0.364127	12863.519531
2197.170898	1.428728	0.364127	14203.666016
2197.171770	1.245912	0.364127	15290.101562
2197.172816	0.138186	0.364127	15434.644531
2197.173706	0.095208	0.364127	15519.378906
2197.174582	0.095284	0.364127	15602.847656
2197.175571	0.095284	0.364127	15697.083984
2197.176506	0.095281	0.364127	15786.171875
2197.177425	0.095182	0.364127	15873.643555
2197.178285	0.095233	0.364127	15955.543945
2197.179292	0.095317	0.364127	16051.528320
2197.180191	0.095208	0.364127	16137.120117
2197.181069	0.095328	0.364127	16220.818359
2198.218039	1.424253	0.314022	784.763306
2198.219098	1.802747	0.314022	2693.872070
2198.220006	1.755392	0.314022	4287.767578
2198.220884	1.702134	0.314022	5782.241211
2198.222003	1.642200	0.314022	7619.862305
2198.222960	1.591600	0.314022	9143.023437
2198.223834	1.546912	0.314022	10495.024414
2198.224870	1.496909	0.314022	12045.822266
2198.225886	1.450433	0.314022	13519.462891
2198.226778	1.410571	0.314022	14777.692383
2198.227713	0.737135	0.314022	15466.914062
2198.228759	0.096028	0.314022	15567.359375
2198.229703	0.095248	0.314022	15657.273437
2198.230566	0.095229	0.314022	15739.456055
2198.231620	0.095244	0.314022	15839.843750
2198.232634	0.095248	0.314022	15936.424805
2198.233516	0.095215	0.314022	16020.404297
2198.234467	0.095332	0.314022	16111.065430
2198.235529	0.095350	0.314022	16212.327148
2198.236448	0.095270	0.314022	16299.879883
2198.237314	0.095248	0.314022	16382.364258
2199.241754	1.393890	0.369400	710.884094
2199.242754	1.805061	0.369400	2515.945068
2199.243656	1.761445	0.369400	4104.768555
2199.244657	1.704013	0.369400	5810.485352
2199.245698	1.646360	0.369400	7524.345703
2199.246585	1.597830	0.369400	8941.620117
2199.247470	1.551617	0.369400	10314.801758
2199.248564	1.499810	0.369400	11955.593750
2199.249527	1.455450	0.369400	13357.192383
2199.250392	1.416530	0.369400	14582.490234
2199.251435	0.768080	0.369400	15383.597656
2199.252469	0.096313	0.369400	15483.185547
2199.253354	0.095233	0.369400	15567.466797
2199.254278	0.095391	0.369400	15655.607422
2199.255363	0.095317	0.369400	15759.026367
2199.256288	0.095350	0.369400	15847.225586
2199.257154	0.095321	0.369400	15929.773437
2199.258176	0.095457	0.369400	16027.330078
2199.259198	0.095354	0.369400	16124.782227
2199.260089	0.095189	0.369400	16209.595703
2199.261039	0.095306	0.369400	16300.136719
2200.298280	1.400764	0.307783	726.996643
2200.299281	1.804937	0.307783	2533.738037
2200.300163	1.760845	0.307783	4086.803223
2200.301078	1.708085	0.307783	5649.700684
2200.301954	1.657064	0.307783	7101.289062
2200.302957	1.605388	0.307783	8711.493164
2200.303885	1.557766	0.307783	10157.099609
2200.304767	1.514667	0.307783	11493.035156
2200.305781	1.466843	0.307783	12980.414062
2200.306693	1.425282	0.307783	14280.271484
2200.307624	1.191339	0.307783	15389.408203
2200.308492	0.149927	0.307783	15519.544922
2200.309500	0.095149	0.307783	15615.455078
2200.310423	0.095244	0.307783	15703.365234
2200.311287	0.095343	0.307783	15785.741211
2200.312320	0.095255	0.307783	15884.139648
2200.313195	0.095251	0.307783	15967.484375
2200.314101	0.095229	0.307783	16053.762695
2200.314976	0.095244	0.307783	16137.101562
2200.315934	0.095186	0.307783	16228.289062
2200.316857	0.095306	0.307783	16316.256836
2201.322234	1.367516	0.358600	664.612732
2201.323118	1.806837	0.358600	2261.856689
2201.324037	1.767880	0.358600	3886.538086
2201.325113	1.706159	0.358600	5722.364746
2201.326061	1.652904	0.358600	7289.317871
2201.326923	1.606066	0.358600	8673.746094
2201.327995	1.552375	0.358600	10337.892578
2201.329035	1.501567	0.358600	11899.522461
2201.329916	1.459658	0.358600	13185.481445
2201.330884	1.417138	0.358600	14557.270508
2201.331957	0.739124	0.358600	15350.349609
2201.332871	0.097064	0.358600	15439.066406
2201.333744	0.095273	0.358600	15522.240234
2201.334817	0.095310	0.358600	15624.507812
2201.335810	0.095281	0.358600	15719.122070
2201.336708	0.095164	0.358600	15804.579102
2201.337687	0.095427	0.358600	15898.001953
2201.338737	0.095394	0.358600	15998.166016
2201.339648	0.095281	0.358600	16084.966797
2201.340508	0.095284	0.358600	16166.911133
2201.341611	0.095328	0.358600	16272.058594
2202.376915	1.323794	0.322051	586.440674
2202.377792	1.806020	0.322051	2170.320801
2202.378758	1.769634	0.322051	3879.787109
2202.379664	1.715684	0.322051	5434.196289
2202.380546	1.665835	0.322051	6903.462891
2202.381435	1.616118	0.322051	8340.192383
2202.382457	1.564039	0.322051	9938.640625
2202.383379	1.518893	0.322051	11339.059570
2202.384268	1.476284	0.322051	12651.476562
2202.385289	1.432042	0.322051	14113.591797
2202.386204	1.301887	0.322051	15304.818359
2202.387122	0.196106	0.322051	15484.843750
2202.387984	0.095164	0.322051	15566.875000
2202.389021	0.095178	0.322051	15665.575195
2202.389895	0.095251	0.322051	15748.825195
2202.390771	0.095259	0.322051	15832.271484
2202.391748	0.095380	0.322051	15925.457031
2202.392672	0.095153	0.322051	16013.377930
2202.393599	0.095178	0.322051	16101.608398
2202.394459	0.095186	0.322051	16183.467773
2202.395494	0.095237	0.322051	16282.038086
2203.400771	1.393590	0.344771	783.197632
2203.401809	1.802468	0.344771	2654.159668
2203.402718	1.755630	0.344771	4250.027344
2203.403579	1.703643	0.344771	5716.863770
2203.404650	1.645327	0.344771	7479.009277
2203.405644	1.592512	0.344771	9061.966797
2203.406544	1.547380	0.344771	10454.609375
2203.407531	1.499747	0.344771	11934.860352
2203.408603	1.450521	0.344771	13489.819336
2203.409496	1.410352	0.344771	14749.263672
2203.410382	0.765348	0.344771	15427.362305
2203.411476	0.095793	0.344771	15532.160156
2203.412437	0.095200	0.344771	15623.647461
2203.413299	0.095314	0.344771	15705.807617
2203.414339	0.095332	0.344771	15804.953125
2203.415370	0.095306	0.344771	15903.213867
2203.416261	0.095288	0.344771	15988.115234
2203.417185	0.095376	0.344771	16076.242187
2203.418236	0.095372	0.344771	16176.478516
2203.419176	0.095317	0.344771	16266.077148
2203.420039	0.095208	0.344771	16348.241211
2204.456919	1.351505	0.314075	602.771240
2204.457795	1.805878	0.314075	2184.720215
2204.458781	1.767964	0.314075	3927.932617
2204.459663	1.714666	0.314075	5440.267578
2204.460547	1.665458	0.314075	6912.532227
2204.461528	1.613320	0.314075	8495.199219
2204.462469	1.563951	0.314075	9966.876953
2204.463385	1.519329	0.314075	11358.582031
2204.464268	1.475783	0.314075	12661.698242
2204.465308	1.430427	0.314075	14149.342773
2204.466203	1.316656	0.314075	15327.750000
2204.467085	0.212933	0.314075	15515.557617
2204.468042	0.095112	0.314075	15606.580078
2204.469023	0.095211	0.314075	15699.982422
2204.469943	0.095222	0.314075	15787.586914
2204.470806	0.095266	0.314075	15869.801758
2204.471831	0.095262	0.314075	15967.445312
2204.472698	0.095219	0.314075	16050.000000
2204.473573	0.095255	0.314075	16133.348633
2204.474437	0.095273	0.314075	16215.665039
2204.475493	0.095233	0.314075	16316.231445
2205.477909	1.390272	0.354354	703.477722
2205.478874	1.806083	0.354354	2446.347656
2205.479739	1.765452	0.354354	3973.463379
2205.480797	1.704401	0.354354	5776.719238
2205.481826	1.647199	0.354354	7471.686523
2205.482715	1.599170	0.354354	8893.348633
2205.483654	1.551804	0.354354	10350.493164
2205.484717	1.499956	0.354354	11944.946289
2205.485657	1.455623	0.354354	13313.231445
2205.486520	1.417083	0.354354	14536.173828
2205.487573	0.792250	0.354354	15370.413086
2205.488591	0.096702	0.354354	15468.855469
2205.489471	0.095160	0.354354	15552.595703
2205.490423	0.095273	0.354354	15643.295898
2205.491477	0.095405	0.354354	15743.853516
2205.492396	0.095171	0.354354	15831.315430
2205.493266	0.095343	0.354354	15914.263672
2205.494298	0.095376	0.354354	16012.691406
2205.495313	0.095273	0.354354	16109.393555
2205.496200	0.095251	0.354354	16193.881836
2205.497157	0.095402	0.354354	16285.181641
2206.537406	1.308494	0.293329	560.035278
2206.538403	1.802941	0.293329	2357.567139
2206.539289	1.766847	0.293329	3922.993652
2206.540203	1.713962	0.293329	5489.555176
2206.541083	1.664169	0.293329	6954.023437
2206.542032	1.612064	0.293329	8483.872070
2206.542991	1.563439	0.293329	9983.209961
2206.543887	1.519622	0.293329	11344.791016
2206.544883	1.472904	0.293329	12811.803711
2206.545791	1.430958	0.293329	14111.113281
2206.546716	1.324651	0.293329	15336.415039
2206.547582	0.222334	0.293329	15528.956055
2206.548618	0.095134	0.293329	15627.515625
2206.549502	0.095244	0.293329	15711.711914
2206.550407	0.095266	0.293329	15797.927734
2206.551286	0.095321	0.293329	15881.714844
2206.552280	0.095259	0.293329	15976.402344
2206.553207	0.095292	0.293329	16064.738281
2206.554086	0.095347	0.293329	16148.547852
2206.555091	0.095310	0.293329	16244.333984
2206.555986	0.095237	0.293329	16329.571289
2207.555535	1.332045	0.355152	591.427856
2207.556401	1.804724	0.355152	2154.318848
2207.557476	1.763024	0.355152	4049.569336
2207.558487	1.703888	0.355152	5772.200195
2207.559374	1.654204	0.355152	7239.479492
2207.560376	1.601957	0.355152	8844.640625
2207.561422	1.548230	0.355152	10464.088867
2207.562330	1.503933	0.355152	11829.660156
2207.563192	1.461211	0.355152	13089.223633
2207.564279	1.414904	0.355152	14627.223633
2207.565284	0.760532	0.355152	15391.558594
2207.566162	0.098046	0.355152	15477.642578
2207.567153	0.095358	0.355152	15572.141602
2207.568223	0.095277	0.355152	15674.087891
2207.569094	0.095219	0.355152	15757.023437
2207.569980	0.095332	0.355152	15841.487305
2207.571081	0.095398	0.355152	15946.520508
2207.572032	0.095288	0.355152	16037.139648
2207.572903	0.095281	0.355152	16120.128906
2207.573909	0.095468	0.355152	16216.168945
2207.574961	0.095306	0.355152	16316.431641
2208.616431	1.364535	0.277030	642.695923
2208.617320	1.806398	0.277030	2248.583496
2208.618290	1.767187	0.277030	3962.755371
2208.619227	1.712212	0.277030	5567.098145
2208.620110	1.661664	0.277030	7034.347168
2208.621022	1.611596	0.277030	8504.122070
2208.622005	1.561454	0.277030	10039.031250
2208.622920	1.516154	0.277030	11426.311523
2208.623815	1.473695	0.277030	12745.268555
2208.624775	1.432438	0.277030	14120.409180
2208.625710	1.286158	0.277030	15322.966797
2208.626639	0.174800	0.277030	15485.355469
2208.627502	0.095248	0.277030	15567.554687
2208.628544	0.095262	0.277030	15666.818359
2208.629449	0.095266	0.277030	15753.034180
2208.630325	0.095328	0.277030	15836.541992
2208.631341	0.095288	0.277030	15933.354492
2208.632234	0.095233	0.277030	16018.397461
2208.633141	0.095336	0.277030	16104.867187
2208.634017	0.095383	0.277030	16188.422852
2208.635047	0.095303	0.277030	16286.584961
2209.633291	1.346396	0.326547	679.930176
2209.634342	1.802977	0.326547	2574.859375
2209.635281	1.756421	0.326547	4224.138672
2209.636146	1.705444	0.326547	5699.348145
2209.637210	1.646737	0.326547	7451.476562
2209.638226	1.592937	0.326547	9069.900391
2209.639109	1.548025	0.326547	10436.806641
2209.640083	1.501230	0.326547	11899.004883
2209.641132	1.452275	0.326547	13422.441406
2209.642054	1.411102	0.326547	14723.477539
2209.642923	0.825710	0.326547	15441.019531
2209.643995	0.096881	0.326547	15544.875977
2209.644985	0.095336	0.326547	15639.258789
2209.645855	0.095204	0.326547	15722.085937
2209.646827	0.095372	0.326547	15814.788086
2209.647878	0.095413	0.326547	15915.066406
2209.648790	0.095306	0.326547	16001.986328
2209.649652	0.095219	0.326547	16084.064453
2209.650740	0.095394	0.326547	16187.853516
2209.651711	0.095237	0.326547	16280.328125
2209.652594	0.095281	0.326547	16364.460937
2210.696891	1.304022	0.271806	551.601379
2210.697908	1.804321	0.271806	2386.596191
2210.698805	1.765682	0.271806	3970.413086
2210.699683	1.714321	0.271806	5475.586914
2210.700568	1.662609	0.271806	6946.995605
2210.701613	1.607875	0.271806	8627.224609
2210.702505	1.561937	0.271806	10020.472656
2210.703388	1.518995	0.271806	11361.745117
2210.704412	1.470886	0.271806	12867.932617
2210.705324	1.428867	0.271806	14171.059570
2210.706246	1.286836	0.271806	15357.522461
2210.707114	0.193257	0.271806	15525.269531
2210.708161	0.095200	0.271806	15624.944336
2210.709039	0.095325	0.271806	15708.639648
2210.709910	0.095336	0.271806	15791.676758
2210.710879	0.095332	0.271806	15884.053711
2210.711816	0.095361	0.271806	15973.407227
2210.712723	0.095240	0.271806	16059.790039
2210.713599	0.095208	0.271806	16143.191406
2210.714635	0.095336	0.271806	16241.958984
2210.715534	0.095222	0.271806	16327.563477
2211.712184	1.301030	0.331944	546.432739
2211.713153	1.802410	0.331944	2292.967773
2211.714208	1.759647	0.331944	4149.395508
2211.715131	1.705576	0.331944	5723.642578
2211.715997	1.655782	0.331944	7157.550293
2211.717081	1.599305	0.331944	8891.197266
2211.718081	1.547889	0.331944	10439.086914
2211.718966	1.504259	0.331944	11770.356445
2211.719962	1.458918	0.331944	13223.439453
2211.721016	1.412534	0.331944	14712.250000
2211.721923	0.833280	0.331944	15468.035156
2211.722780	0.100844	0.331944	15554.458008
2211.723871	0.095431	0.331944	15658.573242
2211.724861	0.095153	0.331944	15752.774414
2211.725736	0.095270	0.331944	15836.135742
2211.726728	0.095394	0.331944	15930.766602
2211.727786	0.095361	0.331944	16031.659180
2211.728672	0.095197	0.331944	16116.002930
2211.729544	0.095211	0.331944	16199.027344
2211.730643	0.095372	0.331944	16303.841797
2211.731610	0.095273	0.331944	16395.970703
2212.777547	1.455894	0.257139	821.123962
2212.778475	1.804534	0.257139	2495.731201
2212.779401	1.760533	0.257139	4125.985352
2212.780271	1.708304	0.257139	5612.209961
2212.781317	1.651505	0.257139	7339.684570
2212.782210	1.603521	0.257139	8771.628906
2212.783091	1.558722	0.257139	10144.863281
2212.784101	1.510159	0.257139	11670.123047
2212.785033	1.464873	0.257139	13035.384766
2212.785959	1.424169	0.257139	14354.165039
2212.786826	1.181517	0.257139	15378.541016
2212.787873	0.120352	0.257139	15504.548828
2212.788745	0.095167	0.257139	15587.534180
2212.789621	0.095321	0.257139	15671.035156
2212.790582	0.095383	0.257139	15762.698242
2212.791546	0.095266	0.257139	15854.535156
2212.792453	0.095409	0.257139	15941.071289
2212.793328	0.095328	0.257139	16024.483398
2212.794360	0.095109	0.257139	16122.635742
2212.795253	0.095145	0.257139	16207.600586
2212.796129	0.095131	0.257139	16290.934570
2213.791694	1.332327	0.331836	587.556030
2213.792557	1.803816	0.331836	2144.249023
2213.793663	1.761427	0.331836	4092.387207
2213.794662	1.702570	0.331836	5793.254395
2213.795550	1.653234	0.331836	7261.326172
2213.796559	1.600170	0.331836	8875.897461
2213.797613	1.546809	0.331836	10506.234375
2213.798497	1.502699	0.331836	11834.620117
2213.799389	1.459515	0.331836	13136.507812
2213.800481	1.412413	0.331836	14678.863281
2213.801442	0.764905	0.331836	15413.936523
2213.802312	0.098584	0.331836	15499.705078
2213.803336	0.095358	0.331836	15597.351562
2213.804369	0.095292	0.331836	15695.788086
2213.805264	0.095237	0.331836	15781.025391
2213.806211	0.095424	0.331836	15871.391602
2213.807264	0.095314	0.331836	15971.756836
2213.808201	0.095211	0.331836	16060.969727
2213.809065	0.095273	0.331836	16143.286133
2213.810112	0.095438	0.331836	16243.209961
2213.811126	0.095321	0.331836	16339.865234
2214.855875	1.316821	0.261759	563.599487
2214.856893	1.803138	0.261759	2399.194336
2214.857884	1.759449	0.261759	4142.808594
2214.858780	1.707004	0.261759	5672.284668
2214.859645	1.656515	0.261759	7105.169922
2214.860753	1.600602	0.261759	8878.636719
2214.861655	1.554283	0.261759	10280.600586
2214.862519	1.511342	0.261759	11586.399414
2214.863524	1.463763	0.261759	13057.481445
2214.864517	1.419086	0.261759	14466.633789
2214.865423	1.052564	0.261759	15420.255859
2214.866297	0.117931	0.261759	15523.327148
2214.867402	0.095251	0.261759	15628.580078
2214.868312	0.095255	0.261759	15715.262695
2214.869176	0.095138	0.261759	15797.461914
2214.870250	0.095347	0.261759	15899.864258
2214.871214	0.095204	0.261759	15991.640625
2214.872096	0.095229	0.261759	16075.632812
2214.872956	0.095343	0.261759	16157.627930
2214.874046	0.095262	0.261759	16261.463867
2214.874936	0.095292	0.261759	16346.273437
2215.873305	1.400035	0.316883	708.417908
2215.874312	1.804362	0.316883	2525.409912
2215.875196	1.761453	0.316883	4082.533936
2215.876206	1.704170	0.316883	5803.745605
2215.877261	1.644840	0.316883	7539.051758
2215.878157	1.595786	0.316883	8968.875977
2215.879028	1.550339	0.316883	10319.221680
2215.880120	1.498696	0.316883	11955.797852
2215.881090	1.453374	0.316883	13365.570312
2215.881986	1.414211	0.316883	14632.704102
2215.882992	0.753479	0.316883	15390.704102
2215.884040	0.096079	0.316883	15491.394531
2215.884932	0.095219	0.316883	15576.329102
2215.885807	0.095277	0.316883	15659.696289
2215.886895	0.095402	0.316883	15763.493164
2215.887860	0.095270	0.316883	15855.428711
2215.888728	0.095229	0.316883	15938.087891
2215.889769	0.095380	0.316883	16037.377930
2215.890801	0.095277	0.316883	16135.704102
2215.891694	0.095222	0.316883	16220.737305
2215.892627	0.095317	0.316883	16309.667969
2216.932294	1.316276	0.271765	569.947327
2216.933153	1.803168	0.271765	2118.868408
2216.934203	1.764327	0.271765	3971.412109
2216.935100	1.712428	0.271765	5507.459961
2216.935983	1.662686	0.271765	6975.611328
2216.936962	1.610585	0.271765	8552.374023
2216.937919	1.560597	0.271765	10045.865234
2216.938847	1.515212	0.271765	11451.982422
2216.939715	1.473743	0.271765	12731.191406
2216.940751	1.427930	0.271765	14210.526367
2216.941647	1.272290	0.271765	15350.498047
2216.942532	0.183896	0.271765	15513.246094
2216.943499	0.095288	0.271765	15605.389648
2216.944472	0.095222	0.271765	15698.041016
2216.945388	0.095208	0.271765	15785.250977
2216.946247	0.095328	0.271765	15867.137695
2216.947264	0.095204	0.271765	15963.959961
2216.948158	0.095200	0.271765	16049.069336
2216.949031	0.095317	0.271765	16132.281250
2216.949907	0.095317	0.271765	16215.779297
2216.950952	0.095182	0.271765	16315.244141
2217.955510	1.312819	0.298280	550.070984
2217.956613	1.802725	0.298280	2538.476318
2217.957597	1.755780	0.298280	4266.164062
2217.958467	1.704382	0.298280	5748.976562
2217.959539	1.645122	0.298280	7512.547363
2217.960569	1.591143	0.298280	9151.423828
2217.961469	1.545395	0.298280	10542.279297
2217.962403	1.499462	0.298280	11942.776367
2217.963454	1.450748	0.298280	13467.512695
2217.964403	1.408484	0.298280	14804.164062
2217.965274	0.775338	0.298280	15479.483398
2217.966333	0.096398	0.298280	15581.568359
2217.967351	0.095171	0.298280	15678.452148
2217.968234	0.095251	0.298280	15762.559570
2217.969187	0.095255	0.298280	15853.337891
2217.970246	0.095193	0.298280	15954.147461
2217.971168	0.095200	0.298280	16041.921875
2217.972025	0.095215	0.298280	16123.521484
2217.973072	0.095325	0.298280	16223.326172
2217.974085	0.095193	0.298280	16319.756836
2217.974970	0.095226	0.298280	16404.031250
2219.009770	1.336641	0.272124	632.231079
2219.010784	1.805204	0.272124	2462.707764
2219.011688	1.761724	0.272124	4055.305908
2219.012575	1.710641	0.272124	5572.644531
2219.013590	1.654534	0.272124	7251.996094
2219.014502	1.604026	0.272124	8714.868164
2219.015427	1.557956	0.272124	10155.977539
2219.016293	1.513473	0.272124	11466.645508
2219.017344	1.465184	0.272124	13006.554687
2219.018224	1.425681	0.272124	14261.154297
2219.019098	1.266240	0.272124	15367.848633
2219.020093	0.167626	0.272124	15534.636719
2219.021030	0.095171	0.272124	15623.811523
2219.021945	0.095266	0.272124	15710.980469
2219.022824	0.095240	0.272124	15794.697266
2219.023857	0.095262	0.272124	15893.103516
2219.024752	0.095248	0.272124	15978.350586
2219.025631	0.095178	0.272124	16062.012695
2219.026568	0.095281	0.272124	16151.291016
2219.027546	0.095204	0.272124	16244.400391
2219.028468	0.095281	0.272124	16332.249023
2220.035584	1.341453	0.299690	665.360474
2220.036659	1.802069	0.299690	2602.584717
2220.037593	1.755286	0.299690	4242.021484
2220.038467	1.703844	0.299690	5731.181152
2220.039530	1.645020	0.299690	7479.836914
2220.040545	1.591282	0.299690	9094.988281
2220.041443	1.546201	0.299690	10483.476562
2220.042420	1.499022	0.299690	11948.021484
2220.043474	1.450291	0.299690	13476.627930
2220.044398	1.408905	0.299690	14778.456055
2220.045267	0.762843	0.299690	15441.366211
2220.046361	0.095991	0.299690	15546.380859
2220.047343	0.095156	0.299690	15639.824219
2220.048231	0.095120	0.299690	15724.290039
2220.049219	0.095369	0.299690	15818.514648
2220.050267	0.095193	0.299690	15918.276367
2220.051148	0.095200	0.299690	16002.147461
2220.052003	0.095292	0.299690	16083.622070
2220.053115	0.095281	0.299690	16189.574219
2220.054067	0.095160	0.299690	16280.166016
2220.054923	0.095284	0.299690	16361.729492
2221.090306	1.385156	0.278497	669.030457
2221.091194	1.805717	0.278497	2272.506836
2221.092072	1.769864	0.278497	3826.447754
2221.093023	1.714838	0.278497	5457.258301
2221.094031	1.658412	0.278497	7128.937500
2221.094966	1.608186	0.278497	8632.591797
2221.095832	1.562955	0.278497	9986.111328
2221.096880	1.512092	0.278497	11570.784180
2221.097778	1.468660	0.278497	12889.640625
2221.098659	1.429951	0.278497	14149.427734
2221.099573	1.215930	0.278497	15260.788086
2221.100585	0.139446	0.278497	15401.907227
2221.101504	0.095149	0.278497	15489.348633
2221.102391	0.095339	0.278497	15573.915039
2221.103395	0.095350	0.278497	15669.646484
2221.104304	0.095288	0.278497	15756.263672
2221.105226	0.095215	0.278497	15844.051758
2221.106088	0.095372	0.278497	15926.262695
2221.107111	0.095380	0.278497	16023.835937
2221.107994	0.095259	0.278497	16107.949219
2221.108863	0.095284	0.278497	16190.750977
2222.113996	1.321930	0.297857	584.293030
2222.114861	1.804607	0.297857	2145.278076
2222.115943	1.762544	0.297857	4052.350586
2222.116965	1.703027	0.297857	5792.844727
2222.117851	1.652911	0.297857	7257.324219
2222.118832	1.601960	0.297857	8828.847656
2222.119872	1.548516	0.297857	10439.303711
2222.120797	1.503615	0.297857	11830.147461
2222.121660	1.461390	0.297857	13091.327148
2222.122738	1.415094	0.297857	14616.798828
2222.123738	0.779473	0.297857	15396.271484
2222.124610	0.098533	0.297857	15482.192383
2222.125585	0.095398	0.297857	15575.205078
2222.126637	0.095394	0.297857	15675.559570
2222.127548	0.095328	0.297857	15762.403320
2222.128412	0.095369	0.297857	15844.801758
2222.129508	0.095424	0.297857	15949.385742
2222.130476	0.095262	0.297857	16041.599609
2222.131361	0.095273	0.297857	16125.916992
2222.132360	0.095259	0.297857	16221.080078
2222.133414	0.095237	0.297857	16321.459961
2223.171517	1.303473	0.264873	550.065552
2223.172501	1.801930	0.264873	2323.164551
2223.173521	1.760087	0.264873	4118.453125
2223.174419	1.707689	0.264873	5651.958008
2223.175287	1.658049	0.264873	7091.144531
2223.176353	1.601821	0.264873	8798.685547
2223.177290	1.553591	0.264873	10254.400391
2223.178175	1.511140	0.264873	11591.759766
2223.179142	1.465924	0.264873	13009.308594
2223.180161	1.420126	0.264873	14456.416992
2223.181049	1.090082	0.264873	15424.410156
2223.181915	0.125182	0.264873	15532.817383
2223.182974	0.095175	0.264873	15633.607422
2223.183907	0.095215	0.264873	15722.443359
2223.184772	0.095328	0.264873	15804.902344
2223.185711	0.095416	0.264873	15894.498047
2223.186754	0.095409	0.264873	15994.009766
2223.187654	0.095358	0.264873	16079.832031
2223.188518	0.095292	0.264873	16162.164062
2223.189535	0.095537	0.264873	16259.325195
2223.190488	0.095303	0.264873	16350.148437
2224.190901	1.296654	0.313144	544.594727
2224.191847	1.802018	0.313144	2249.303711
2224.192899	1.760691	0.313144	4101.550293
2224.193841	1.705671	0.313144	5708.292969
2224.194709	1.655999	0.313144	7145.699707
2224.195781	1.599814	0.313144	8860.701172
2224.196788	1.548435	0.313144	10419.975586
2224.197683	1.504816	0.313144	11766.785156
2224.198667	1.459574	0.313144	13203.005859
2224.199705	1.413157	0.313144	14669.862305
2224.200627	0.834188	0.313144	15438.983398
2224.201483	0.100942	0.313144	15525.389648
2224.202576	0.095306	0.313144	15629.559570
2224.203563	0.095292	0.313144	15723.612305
2224.204431	0.095270	0.313144	15806.306641
2224.205417	0.095380	0.313144	15900.350586
2224.206458	0.095328	0.313144	15999.587891
2224.207360	0.095339	0.313144	16085.583984
2224.208226	0.095332	0.313144	16168.141602
2224.209329	0.095391	0.313144	16273.357422
2224.210308	0.095262	0.313144	16366.619141
2225.251772	1.314675	0.247189	557.422302
2225.252869	1.803278	0.247189	2535.617920
2225.253784	1.759186	0.247189	4145.272949
2225.254662	1.708433	0.247189	5645.276855
2225.255658	1.653724	0.247189	7292.386230
2225.256673	1.598569	0.247189	8914.934570
2225.257562	1.553361	0.247189	10295.872070
2225.258424	1.509576	0.247189	11597.126953
2225.259490	1.460750	0.247189	13154.286133
2225.260418	1.419272	0.247189	14471.371094
2225.261303	1.089357	0.247189	15435.452148
2225.262285	0.123212	0.247189	15556.446289
2225.263295	0.095215	0.247189	15652.613281
2225.264192	0.095266	0.247189	15738.067383
2225.265052	0.095394	0.247189	15820.106445
2225.266123	0.095394	0.247189	15922.273437
2225.267062	0.095270	0.247189	16011.731445
2225.267938	0.095226	0.247189	16095.149414
2225.268890	0.095369	0.247189	16185.940430
2225.269912	0.095343	0.247189	16283.380859
2225.270793	0.095208	0.247189	16367.258789
2226.268727	1.425231	0.294376	756.797546
2226.269767	1.802498	0.294376	2631.395020
2226.270668	1.756879	0.294376	4214.342773
2226.271603	1.702775	0.294376	5806.437012
2226.272669	1.643621	0.294376	7558.536621
2226.273608	1.593622	0.294376	9054.947266
2226.274475	1.548625	0.294376	10397.605469
2226.275538	1.498246	0.294376	11990.241211
2226.276557	1.450411	0.294376	13468.210937
2226.277444	1.411582	0.294376	14720.284180
2226.278430	0.714313	0.294376	15424.596680
2226.279477	0.096010	0.294376	15525.119141
2226.280393	0.095295	0.294376	15612.410156
2226.281248	0.095288	0.294376	15693.881836
2226.282329	0.095314	0.294376	15796.916016
2226.283319	0.095215	0.294376	15891.178711
2226.284189	0.095186	0.294376	15973.990234
2226.285166	0.095442	0.294376	16067.237305
2226.286219	0.095347	0.294376	16167.637695
2226.287118	0.095281	0.294376	16253.294922
2226.287985	0.095336	0.294376	16335.951172
2227.331618	1.370772	0.246395	721.025818
2227.332686	1.801820	0.246395	2645.369629
2227.333607	1.754722	0.246395	4261.468262
2227.334471	1.702969	0.246395	5732.833008
2227.335547	1.644540	0.246395	7502.357910
2227.336552	1.591084	0.246395	9101.397461
2227.337439	1.546069	0.246395	10472.760742
2227.338439	1.498612	0.246395	11971.373047
2227.339501	1.449419	0.246395	13510.656250
2227.340405	1.409150	0.246395	14784.528320
2227.341272	0.747733	0.246395	15432.812500
2227.342368	0.095999	0.246395	15538.027344
2227.343316	0.095211	0.246395	15628.287109
2227.344184	0.095116	0.246395	15710.847656
2227.345275	0.095350	0.246395	15814.875000
2227.346309	0.095255	0.246395	15913.369141
2227.347196	0.095343	0.246395	15997.938477
2227.348118	0.095343	0.246395	16085.844727
2227.349175	0.095306	0.246395	16186.583984
2227.350126	0.095358	0.246395	16277.269531
2227.350995	0.095266	0.246395	16360.055664
2228.346829	1.320399	0.296403	580.975647
2228.347690	1.803776	0.296403	2134.026367
2228.348758	1.762559	0.296403	4016.438965
2228.349764	1.703958	0.296403	5730.620117
2228.350662	1.654296	0.296403	7216.177734
2228.351656	1.601462	0.296403	8808.031250
2228.352716	1.547450	0.296403	10448.328125
2228.353633	1.502318	0.296403	11825.954102
2228.354500	1.459772	0.296403	13091.576172
2228.355622	1.412047	0.296403	14675.892578
2228.356599	0.745895	0.296403	15404.631836
2228.357466	0.097917	0.296403	15489.526367
2228.358511	0.095288	0.296403	15589.102539
2228.359543	0.095200	0.296403	15687.349609
2228.360435	0.095273	0.296403	15772.333984
2228.361353	0.095237	0.296403	15859.761719
2228.362397	0.095453	0.296403	15959.414062
2228.363342	0.095332	0.296403	16049.502930
2228.364207	0.095266	0.296403	16131.908203
2228.365249	0.095420	0.296403	16231.335937
2228.366267	0.095229	0.296403	16328.279297
2229.411867	1.403624	0.251084	713.041138
2229.412884	1.803534	0.251084	2547.235107
2229.413778	1.759786	0.251084	4120.484375
2229.414754	1.703544	0.251084	5783.143066
2229.415827	1.643196	0.251084	7546.291992
2229.416754	1.594611	0.251084	9024.496094
2229.417623	1.548472	0.251084	10370.118164
2229.418721	1.496602	0.251084	12013.386719
2229.419715	1.450583	0.251084	13455.266602
2229.420614	1.411219	0.251084	14723.953125
2229.421611	0.682873	0.251084	15404.778320
2229.422671	0.095640	0.251084	15506.156250
2229.423556	0.095332	0.251084	15590.525391
2229.424416	0.095361	0.251084	15672.536133
2229.425526	0.095457	0.251084	15778.493164
2229.426493	0.095248	0.251084	15870.597656
2229.427353	0.095226	0.251084	15952.492187
2229.428405	0.095431	0.251084	16052.885742
2229.429431	0.095343	0.251084	16150.708008
2229.430312	0.095273	0.251084	16234.643555
2229.431229	0.095398	0.251084	16322.123047
2230.426108	1.387548	0.300282	666.022827
2230.426988	1.805676	0.300282	2255.018066
2230.427964	1.765565	0.300282	3978.209717
2230.429025	1.703331	0.300282	5785.444336
2230.429949	1.651073	0.300282	7311.035645
2230.430813	1.603726	0.300282	8696.654297
2230.431900	1.550017	0.300282	10381.522461
2230.432909	1.500502	0.300282	11895.528320
2230.433791	1.459233	0.300282	13182.572266
2230.434801	1.415387	0.300282	14612.113281
2230.435857	0.722783	0.300282	15375.372070
2230.436746	0.097152	0.300282	15461.740234
2230.437603	0.095383	0.300282	15543.483398
2230.438685	0.095376	0.300282	15646.680664
2230.439674	0.095358	0.300282	15740.989258
2230.440538	0.095244	0.300282	15823.280273
2230.441600	0.095493	0.300282	15924.694336
2230.442646	0.095306	0.300282	16024.384766
2230.443536	0.095262	0.300282	16109.167969
2230.444428	0.095391	0.300282	16194.256836
2230.445522	0.095383	0.300282	16298.606445
2231.491608	1.396121	0.240997	699.456421
2231.492630	1.803332	0.240997	2542.462158
2231.493531	1.759112	0.240997	4127.422363
2231.494498	1.703848	0.240997	5775.042969
2231.495552	1.644393	0.240997	7508.233398
2231.496492	1.594673	0.240997	9007.225586
2231.497360	1.549329	0.240997	10352.042969
2231.498429	1.498422	0.240997	11953.855469
2231.499425	1.452290	0.240997	13400.335937
2231.500325	1.412552	0.240997	14671.632812
2231.501303	0.747539	0.240997	15402.726562
2231.502362	0.096017	0.240997	15504.408203
2231.503277	0.095120	0.240997	15591.442383
2231.504139	0.095273	0.240997	15673.568359
2231.505229	0.095365	0.240997	15777.516602
2231.506215	0.095164	0.240997	15871.347656
2231.507099	0.095178	0.240997	15955.485352
2231.508108	0.095409	0.240997	16051.752930
2231.509155	0.095361	0.240997	16151.596680
2231.510039	0.095332	0.240997	16235.870117
2231.510919	0.095251	0.240997	16319.691406
2232.507069	1.305278	0.301100	556.048584
2232.507942	1.804695	0.301100	2131.547119
2232.508858	1.771952	0.301100	3754.655029
2232.509810	1.715797	0.301100	5388.093750
2232.510737	1.664117	0.301100	6930.730469
2232.511602	1.615891	0.301100	8328.476562
2232.512639	1.564087	0.301100	9950.434570
2232.513528	1.519805	0.301100	11301.541016
2232.514436	1.475266	0.301100	12641.083008
2232.515317	1.435807	0.301100	13906.029297
2232.516307	1.347283	0.301100	15239.838867
2232.517236	0.239297	0.301100	15462.145508
2232.518116	0.095175	0.301100	15545.899414
2232.519133	0.095336	0.301100	15642.855469
2232.520031	0.095229	0.301100	15728.371094
2232.520903	0.095219	0.301100	15811.401367
2232.521835	0.095361	0.301100	15900.278320
2232.522832	0.095376	0.301100	15995.368164
2232.523750	0.095259	0.301100	16082.815430
2232.524612	0.095259	0.301100	16164.928711
2232.525677	0.095380	0.301100	16266.507812
2233.568781	1.380652	0.252885	695.848511
2233.569689	1.805771	0.252885	2335.489014
2233.570551	1.766847	0.252885	3858.510986
2233.571656	1.704628	0.252885	5742.124512
2233.572656	1.648542	0.252885	7390.666992
2233.573534	1.601455	0.252885	8796.744141
2233.574526	1.551101	0.252885	10335.436523
2233.575606	1.499806	0.252885	11955.226562
2233.576493	1.456586	0.252885	13247.217773
2233.577359	1.416409	0.252885	14473.828125
2233.578486	0.733447	0.252885	15300.422852
2233.579452	0.096237	0.252885	15393.387695
2233.580318	0.095314	0.252885	15475.929687
2233.581341	0.095460	0.252885	15573.585937
2233.582374	0.095292	0.252885	15672.022461
2233.583264	0.095292	0.252885	15756.832031
2233.584191	0.095255	0.252885	15845.133789
2233.585252	0.095431	0.252885	15946.385742
2233.586197	0.095270	0.252885	16036.416016
2233.587058	0.095244	0.252885	16118.420898
2233.588118	0.095438	0.252885	16219.584961
2234.587590	1.314628	0.286348	562.660645
2234.588616	1.801963	0.286348	2411.474609
2234.589539	1.762002	0.286348	4037.802490
2234.590464	1.708839	0.286348	5618.478516
2234.591329	1.658379	0.286348	7052.976562
2234.592378	1.604180	0.286348	8735.760742
2234.593260	1.557784	0.286348	10109.726562
2234.594138	1.515396	0.286348	11440.244141
2234.595123	1.469334	0.286348	12887.538086
2234.596069	1.426377	0.286348	14236.890625
2234.596988	1.233347	0.286348	15370.336914
2234.597878	0.158683	0.286348	15511.564453
2234.598903	0.095251	0.286348	15609.197266
2234.599791	0.095167	0.286348	15693.706055
2234.600665	0.095226	0.286348	15776.933594
2234.601585	0.095288	0.286348	15864.598633
2234.602598	0.095310	0.286348	15961.147461
2234.603512	0.095193	0.286348	16048.153320
2234.604368	0.095325	0.286348	16129.750977
2234.605484	0.095369	0.286348	16236.182617
2234.606361	0.095350	0.286348	16319.804687
2235.648010	1.380780	0.249493	690.390076
2235.649013	1.804072	0.249493	2499.874512
2235.649909	1.760922	0.249493	4077.660156
2235.650887	1.704646	0.249493	5744.803711
2235.651945	1.645822	0.249493	7486.083008
2235.652864	1.596156	0.249493	8952.950195
2235.653733	1.550530	0.249493	10300.360352
2235.654819	1.499491	0.249493	11928.807617
2235.655808	1.453180	0.249493	13366.001953
2235.656704	1.413820	0.249493	14632.784180
2235.657705	0.757690	0.249493	15391.232422
2235.658748	0.096405	0.249493	15491.783203
2235.659631	0.095244	0.249493	15575.883789
2235.660512	0.095299	0.249493	15659.841797
2235.661598	0.095317	0.249493	15763.356445
2235.662545	0.095240	0.249493	15853.548828
2235.663401	0.095197	0.249493	15935.037109
2235.664416	0.095321	0.249493	16031.788086
2235.665474	0.095303	0.249493	16132.618164
2235.666343	0.095233	0.249493	16215.375977
2235.667254	0.095237	0.249493	16302.136719
2236.666809	1.303092	0.280789	547.298645
2236.667789	1.801106	0.280789	2312.382568
2236.668812	1.759739	0.280789	4112.595215
2236.669708	1.707502	0.280789	5642.517578
2236.670572	1.657712	0.280789	7074.781250
2236.671659	1.600811	0.280789	8814.862305
2236.672607	1.552335	0.280789	10286.476562
2236.673488	1.509686	0.280789	11616.509766
2236.674466	1.463914	0.280789	13048.216797
2236.675484	1.418562	0.280789	14492.312500
2236.676366	1.060016	0.280789	15427.246094
2236.677230	0.119956	0.280789	15530.887695
2236.678310	0.095244	0.280789	15633.750977
2236.679242	0.095292	0.280789	15722.562500
2236.680109	0.095186	0.280789	15805.087891
2236.681058	0.095369	0.280789	15895.592773
2236.682097	0.095270	0.280789	15994.578125
2236.682988	0.095244	0.280789	16079.440430
2236.683849	0.095299	0.280789	16161.493164
2236.684876	0.095343	0.280789	16259.410156
2236.685823	0.095240	0.280789	16349.602539
2237.726907	1.325134	0.239909	559.206665
2237.728007	1.788765	0.239909	2526.847656
2237.728979	1.752891	0.239909	4230.657227
2237.729850	1.705049	0.239909	5715.754883
2237.730879	1.647374	0.239909	7410.902832
2237.731927	1.592043	0.239909	9079.364258
2237.732825	1.546230	0.239909	10467.878906
2237.733766	1.500626	0.239909	11879.967773
2237.734834	1.451166	0.239909	13429.812500
2237.735779	1.409465	0.239909	14761.756836
2237.736654	0.793143	0.239909	15455.756836
2237.737714	0.096321	0.239909	15557.856445
2237.738717	0.095303	0.239909	15653.445312
2237.739612	0.095288	0.239909	15738.728516
2237.740557	0.095332	0.239909	15828.817383
2237.741587	0.095237	0.239909	15926.911133
2237.742508	0.095354	0.239909	16014.732422
2237.743366	0.095369	0.239909	16096.558594
2237.744430	0.095453	0.239909	16198.120117
2237.745426	0.095350	0.239909	16293.088867
2237.746302	0.095306	0.239909	16376.577148
2238.746304	1.316763	0.275838	566.207947
2238.747169	1.782792	0.275838	2108.322754
2238.748288	1.760753	0.275838	4078.605469
2238.749193	1.707220	0.275838	5623.640137
2238.750071	1.658137	0.275838	7079.484375
2238.751076	1.605315	0.275838	8692.826172
2238.752078	1.553024	0.275838	10248.956055
2238.752964	1.509979	0.275838	11586.797852
2238.753825	1.467689	0.275838	12850.478516
2238.754917	1.420338	0.275838	14401.488281
2238.755828	1.068420	0.275838	15374.819336
2238.756712	0.120297	0.275838	15481.161133
2238.757687	0.095402	0.275838	15574.177734
2238.758681	0.095292	0.275838	15668.897461
2238.759574	0.095251	0.275838	15753.957031
2238.760433	0.095226	0.275838	15835.755859
2238.761526	0.095409	0.275838	15940.038086
2238.762448	0.095244	0.275838	16027.853516
2238.763308	0.095380	0.275838	16109.879883
2238.764391	0.095358	0.275838	16213.152344
2238.765384	0.095299	0.275838	16307.784180
2239.805905	1.330730	0.238637	581.528992
2239.806793	1.802893	0.238637	2182.498047
2239.807892	1.759702	0.238637	4116.410645
2239.808853	1.704287	0.238637	5754.230469
2239.809716	1.654860	0.238637	7182.374023
2239.810734	1.600448	0.238637	8811.629883
2239.811763	1.548417	0.238637	10404.951172
2239.812654	1.504911	0.238637	11745.826172
2239.813584	1.461035	0.238637	13104.588867
2239.814654	1.413812	0.238637	14617.368164
2239.815603	0.839630	0.238637	15414.176758
2239.816470	0.100430	0.238637	15501.249023
2239.817524	0.095427	0.238637	15601.829102
2239.818537	0.095262	0.238637	15698.330078
2239.819432	0.095171	0.238637	15783.507812
2239.820397	0.095321	0.238637	15875.492187
2239.821450	0.095292	0.238637	15975.833984
2239.822378	0.095233	0.238637	16064.209961
2239.823238	0.095328	0.238637	16146.192383
2239.824317	0.095394	0.238637	16249.123047
2239.825312	0.095255	0.238637	16343.902344
2240.826295	1.299847	0.271608	547.235718
2240.827243	1.801190	0.271608	2254.763916
2240.828302	1.759878	0.271608	4118.474609
2240.829204	1.707184	0.271608	5658.354492
2240.830076	1.657658	0.271608	7103.832031
2240.831138	1.601345	0.271608	8804.460937
2240.832112	1.551888	0.271608	10316.000000
2240.832989	1.508771	0.271608	11639.191406
2240.833922	1.464741	0.271608	13005.794922
2240.834968	1.418741	0.271608	14489.798828
2240.835851	1.062554	0.271608	15428.033203
2240.836789	0.120223	0.271608	15540.802734
2240.837854	0.095292	0.271608	15642.288086
2240.838802	0.095259	0.271608	15732.593750
2240.839657	0.095284	0.271608	15814.061523
2240.840690	0.095405	0.271608	15912.615234
2240.841717	0.095314	0.271608	16010.501953
2240.842589	0.095229	0.271608	16093.541992
2240.843539	0.095310	0.271608	16184.086914
2240.844589	0.095328	0.271608	16284.181641
2240.845522	0.095339	0.271608	16373.132812
2241.885626	1.304443	0.236618	546.561768
2241.886495	1.802611	0.236618	2113.030762
2241.887596	1.760940	0.236618	4051.825684
2241.888575	1.705001	0.236618	5721.021484
2241.889446	1.655907	0.236618	7163.316406
2241.890469	1.601100	0.236618	8801.241211
2241.891509	1.548695	0.236618	10411.883789
2241.892407	1.504428	0.236618	11762.859375
2241.893351	1.460456	0.236618	13141.530273
2241.894423	1.412838	0.236618	14656.092773
2241.895370	0.803112	0.236618	15416.639648
2241.896239	0.099298	0.236618	15502.929687
2241.897307	0.095409	0.236618	15604.826172
2241.898310	0.095266	0.236618	15700.377930
2241.899202	0.095186	0.236618	15785.283203
2241.900161	0.095303	0.236618	15876.678711
2241.901197	0.095369	0.236618	15975.480469
2241.902117	0.095306	0.236618	16063.162109
2241.902977	0.095284	0.236618	16145.106445
2241.904047	0.095354	0.236618	16247.134766
2241.905049	0.095328	0.236618	16342.653320
2242.903623	1.437019	0.284720	813.352722
2242.904675	1.801179	0.284720	2708.193115
2242.905565	1.754604	0.284720	4269.791016
2242.906451	1.701383	0.284720	5777.216309
2242.907554	1.641929	0.284720	7588.263672
2242.908526	1.590868	0.284720	9134.586914
2242.909389	1.547164	0.284720	10469.790039
2242.910398	1.497429	0.284720	11980.696289
2242.911458	1.449697	0.284720	13517.375000
2242.912335	1.410194	0.284720	14754.115234
2242.913290	0.728035	0.284720	15449.388672
2242.914347	0.095695	0.284720	15550.538086
2242.915288	0.095244	0.284720	15640.163086
2242.916153	0.095229	0.284720	15722.536133
2242.917205	0.095420	0.284720	15822.917969
2242.918220	0.095215	0.284720	15919.560547
2242.919115	0.095284	0.284720	16004.839844
2242.920071	0.095409	0.284720	16096.050781
2242.921127	0.095350	0.284720	16196.741211
2242.922049	0.095200	0.284720	16284.515625
2242.922912	0.095306	0.284720	16366.764648
2243.965385	1.327372	0.227559	581.388855
2243.966245	1.802465	0.227559	2131.508301
2243.967348	1.760204	0.227559	4073.013184
2243.968341	1.703390	0.227559	5764.479492
2243.969217	1.654032	0.227559	7213.411133
2243.970255	1.598642	0.227559	8872.801758
2243.971314	1.545568	0.227559	10509.557617
2243.972214	1.501718	0.227559	11861.103516
2243.973146	1.458201	0.227559	13220.146484
2243.974223	1.409967	0.227559	14738.680664
2243.975171	0.716056	0.227559	15417.501953
2243.976039	0.097482	0.227559	15502.116211
2243.977094	0.095310	0.227559	15602.667969
2243.978104	0.095262	0.227559	15698.882812
2243.979000	0.095325	0.227559	15784.293945
2243.979965	0.095380	0.227559	15876.334961
2243.981029	0.095299	0.227559	15977.733398
2243.981952	0.095288	0.227559	16065.684570
2243.982815	0.095424	0.227559	16148.035156
2243.983876	0.095420	0.227559	16249.275391
2243.984869	0.095354	0.227559	16343.961914
2244.983832	1.394934	0.282259	719.785950
2244.984825	1.803717	0.282259	2510.876953
2244.985727	1.760065	0.282259	4098.455078
2244.986723	1.702701	0.282259	5794.345703
2244.987776	1.644723	0.282259	7526.238770
2244.988676	1.595742	0.282259	8962.406250
2244.989554	1.549146	0.282259	10322.555664
2244.990667	1.497242	0.282259	11988.986328
2244.991636	1.453037	0.282259	13396.979492
2244.992501	1.414157	0.282259	14620.224609
2244.993555	0.705608	0.282259	15363.935547
2244.994567	0.095867	0.282259	15460.953125
2244.995457	0.095292	0.282259	15545.762695
2244.996391	0.095526	0.282259	15634.984375
2244.997444	0.095394	0.282259	15735.434570
2244.998381	0.095314	0.282259	15824.743164
2244.999239	0.095325	0.282259	15906.532227
2245.000283	0.095442	0.282259	16006.173828
2245.001306	0.095420	0.282259	16103.788086
2245.002180	0.095369	0.282259	16187.140625
2245.003134	0.095442	0.282259	16278.192383
2246.045627	1.301726	0.225645	550.630127
2246.046642	1.802208	0.225645	2379.871582
2246.047703	1.756296	0.225645	4243.301758
2246.048595	1.703679	0.225645	5762.983398
2246.049489	1.651589	0.225645	7239.503906
2246.050596	1.594501	0.225645	9004.616211
2246.051551	1.546659	0.225645	10481.675781
2246.052416	1.503959	0.225645	11782.599609
2246.053487	1.454718	0.225645	13340.602539
2246.054513	1.409029	0.225645	14786.266602
2246.055408	0.751333	0.225645	15458.709961
2246.056368	0.098317	0.225645	15553.093750
2246.057423	0.095281	0.225645	15653.615234
2246.058344	0.095200	0.225645	15741.294922
2246.059199	0.095262	0.225645	15822.744141
2246.060246	0.095314	0.225645	15922.538086
2246.061249	0.095365	0.225645	16018.189453
2246.062132	0.095295	0.225645	16102.334961
2246.063046	0.095222	0.225645	16189.368164
2246.063921	0.095255	0.225645	16272.716797
2246.064911	0.095142	0.225645	16366.907227
2247.061210	1.352922	0.294469	612.873840
2247.062092	1.804947	0.294469	2204.837646
2247.063086	1.765342	0.294469	3959.587402
2247.064139	1.704404	0.294469	5754.325195
2247.065046	1.652732	0.294469	7253.353027
2247.065913	1.604674	0.294469	8644.605469
2247.067006	1.551064	0.294469	10339.918945
2247.068005	1.502190	0.294469	11840.606445
2247.068887	1.460526	0.294469	13128.791016
2247.069870	1.417050	0.294469	14521.750977
2247.070950	0.782849	0.294469	15367.228516
2247.071824	0.097961	0.294469	15452.846680
2247.072702	0.095376	0.294469	15536.586914
2247.073793	0.095259	0.294469	15640.514648
2247.074751	0.095127	0.294469	15731.646484
2247.075620	0.095325	0.294469	15814.483398
2247.076631	0.095343	0.294469	15910.875000
2247.077669	0.095266	0.294469	16009.760742
2247.078558	0.095255	0.294469	16094.442383
2247.079472	0.095299	0.294469	16181.545898
2247.080537	0.095325	0.294469	16283.066406
2248.125433	1.385662	0.225738	666.503235
2248.126317	1.788732	0.225738	2247.741943
2248.127319	1.764240	0.225738	4015.510010
2248.128234	1.709099	0.225738	5579.335937
2248.129158	1.657646	0.225738	7111.000977
2248.130020	1.609618	0.225738	8498.492187
2248.131042	1.558250	0.225738	10091.023437
2248.131942	1.514678	0.225738	11454.233398
2248.132822	1.472362	0.225738	12749.912109
2248.133804	1.428940	0.225738	14153.131836
2248.134771	1.232263	0.225738	15344.730469
2248.135701	0.150637	0.225738	15484.823242
2248.136566	0.095219	0.225738	15567.187500
2248.137596	0.095222	0.225738	15665.266602
2248.138489	0.095251	0.225738	15750.326172
2248.139367	0.095251	0.225738	15833.957031
2248.140307	0.095325	0.225738	15923.562500
2248.141307	0.095295	0.225738	16018.858398
2248.142218	0.095186	0.225738	16105.572266
2248.143091	0.095365	0.225738	16188.826172
2248.144183	0.095182	0.225738	16292.764648
2249.140737	1.367959	0.284672	670.299927
2249.141617	1.805189	0.284672	2258.866455
2249.142528	1.766488	0.284672	3868.136963
2249.143619	1.704111	0.284672	5727.322266
2249.144575	1.650571	0.284672	7305.268555
2249.145443	1.604139	0.284672	8697.661133
2249.146487	1.551053	0.284672	10316.960937
2249.147514	1.500542	0.284672	11858.017578
2249.148416	1.459036	0.284672	13174.067383
2249.149369	1.417328	0.284672	14524.781250
2249.150433	0.771925	0.284672	15346.109375
2249.151369	0.097053	0.284672	15436.951172
2249.152227	0.095270	0.284672	15518.692383
2249.153308	0.095365	0.284672	15621.782227
2249.154310	0.095310	0.284672	15717.283203
2249.155193	0.095248	0.284672	15801.386719
2249.156185	0.095372	0.284672	15895.996094
2249.157229	0.095288	0.284672	15995.476562
2249.158132	0.095189	0.284672	16081.432617
2249.158986	0.095281	0.284672	16162.802734
2249.160062	0.095347	0.284672	16265.395508
2250.204870	1.308402	0.221275	563.921265
2250.205740	1.804131	0.221275	2133.515137
2250.206605	1.773662	0.221275	3667.732910
2250.207584	1.716812	0.221275	5348.491211
2250.208490	1.665278	0.221275	6857.233398
2250.209377	1.617554	0.221275	8292.003906
2250.210362	1.567632	0.221275	9836.121094
2250.211299	1.520087	0.221275	11260.442383
2250.212227	1.476043	0.221275	12630.209961
2250.213094	1.436565	0.221275	13875.711914
2250.214138	1.343745	0.221275	15278.582031
2250.215027	0.240659	0.221275	15492.528320
2250.215893	0.095193	0.221275	15574.965820
2250.216841	0.095273	0.221275	15665.285156
2250.217800	0.095262	0.221275	15756.641602
2250.218712	0.095292	0.221275	15843.547852
2250.219592	0.095361	0.221275	15927.465820
2250.220623	0.095449	0.221275	16025.874023
2250.221510	0.095251	0.221275	16110.362305
2250.222384	0.095211	0.221275	16193.577148
2250.223262	0.095299	0.221275	16277.250000
2251.219743	1.397135	0.275782	712.538879
2251.220770	1.802560	0.275782	2563.767822
2251.221650	1.759384	0.275782	4112.025391
2251.222650	1.702266	0.275782	5814.291016
2251.223710	1.643013	0.275782	7555.884277
2251.224623	1.593684	0.275782	9010.917969
2251.225486	1.548347	0.275782	10347.141602
2251.226578	1.496312	0.275782	11981.114258
2251.227557	1.450627	0.275782	13401.278320
2251.228448	1.411923	0.275782	14659.301758
2251.229461	0.704293	0.275782	15372.750977
2251.230511	0.095577	0.275782	15473.107422
2251.231403	0.095189	0.275782	15558.016602
2251.232291	0.095171	0.275782	15642.528320
2251.233382	0.095295	0.275782	15746.496094
2251.234338	0.095189	0.275782	15837.497070
2251.235205	0.095200	0.275782	15920.035156
2251.236240	0.095240	0.275782	16018.609375
2251.237271	0.095204	0.275782	16116.764648
2251.238162	0.095270	0.275782	16201.650391
2251.239095	0.095383	0.275782	16290.642578
2252.283405	1.380234	0.221133	691.497437
2252.284333	1.805281	0.221133	2366.797852
2252.285199	1.765935	0.221133	3896.097656
2252.286261	1.704712	0.221133	5706.501953
2252.287278	1.648268	0.221133	7382.790527
2252.288176	1.600239	0.221133	8819.805664
2252.289144	1.551903	0.221133	10322.047852
2252.290188	1.500337	0.221133	11888.399414
2252.291111	1.457069	0.221133	13233.274414
2252.291979	1.418174	0.221133	14464.249023
2252.293060	0.807301	0.221133	15336.941406
2252.294055	0.096925	0.221133	15433.381836
2252.294932	0.095189	0.221133	15516.862305
2252.295936	0.095376	0.221133	15612.620117
2252.296983	0.095295	0.221133	15712.394531
2252.297883	0.095226	0.221133	15798.097656
2252.298738	0.095303	0.221133	15879.581055
2252.299833	0.095365	0.221133	15984.005859
2252.300791	0.095226	0.221133	16075.232422
2252.301668	0.095255	0.221133	16158.771484
2252.302653	0.095369	0.221133	16252.709961
2253.299754	1.410795	0.265215	729.380859
2253.300728	1.804270	0.265215	2486.739746
2253.301592	1.762775	0.265215	4009.776855
2253.302677	1.700024	0.265215	5854.303223
2253.303727	1.642090	0.265215	7578.497559
2253.304610	1.594618	0.265215	8986.544922
2253.305535	1.547765	0.265215	10418.227539
2253.306604	1.496228	0.265215	12017.695312
2253.307544	1.452828	0.265215	13383.353516
2253.308405	1.413673	0.265215	14600.526367
2253.309429	0.745887	0.265215	15364.315430
2253.310453	0.096046	0.265215	15462.666992
2253.311347	0.095306	0.265215	15547.871094
2253.312299	0.095321	0.265215	15638.617187
2253.313352	0.095387	0.265215	15739.059570
2253.314280	0.095244	0.265215	15827.446289
2253.315144	0.095277	0.265215	15909.765625
2253.316220	0.095365	0.265215	16012.377930
2253.317223	0.095240	0.265215	16107.904297
2253.318113	0.095233	0.265215	16192.662109
2253.319076	0.095284	0.265215	16284.420898
2254.360359	1.428149	0.216243	761.203613
2254.361258	1.804644	0.216243	2383.578125
2254.362177	1.763357	0.216243	4004.103027
2254.363056	1.711117	0.216243	5508.174805
2254.364062	1.656431	0.216243	7174.543945
2254.364990	1.606512	0.216243	8665.387695
2254.365869	1.560564	0.216243	10037.123047
2254.366939	1.509781	0.216243	11652.588867
2254.367835	1.465895	0.216243	12966.030273
2254.368752	1.426029	0.216243	14273.699219
2254.369622	1.252855	0.216243	15363.683594
2254.370620	0.139717	0.216243	15503.121094
2254.371543	0.095226	0.216243	15591.014648
2254.372410	0.095380	0.216243	15673.708984
2254.373406	0.095365	0.216243	15768.692383
2254.374321	0.095237	0.216243	15855.833984
2254.375237	0.095186	0.216243	15943.024414
2254.376100	0.095277	0.216243	16025.249023
2254.377144	0.095332	0.216243	16124.775391
2254.378032	0.095226	0.216243	16209.335937
2254.378949	0.095175	0.216243	16296.611328
2255.379986	1.388525	0.263729	709.536438
2255.380884	1.805255	0.263729	2330.655518
2255.381750	1.765441	0.263729	3859.527344
2255.382865	1.703035	0.263729	5758.411133
2255.383848	1.648312	0.263729	7378.701660
2255.384725	1.601338	0.263729	8783.075195
2255.385801	1.546736	0.263729	10447.363281
2255.386847	1.496074	0.263729	12012.256836
2255.387746	1.454271	0.263729	13319.646484
2255.388691	1.412596	0.263729	14654.549805
2255.389768	0.637013	0.263729	15340.612305
2255.390706	0.095460	0.263729	15430.154297
2255.391567	0.095193	0.263729	15512.115234
2255.392627	0.095354	0.263729	15613.190430
2255.393632	0.095211	0.263729	15708.877930
2255.394516	0.095200	0.263729	15793.035156
2255.395477	0.095354	0.263729	15884.669922
2255.396521	0.095255	0.263729	15984.116211
2255.397441	0.095292	0.263729	16071.784180
2255.398299	0.095314	0.263729	16153.563477
2255.399369	0.095380	0.263729	16255.620117
2256.437697	1.309032	0.220731	562.883728
2256.438564	1.803842	0.220731	2126.814453
2256.439629	1.762368	0.220731	4003.736328
2256.440585	1.707067	0.220731	5635.691895
2256.441471	1.657570	0.220731	7104.298828
2256.442426	1.606824	0.220731	8638.815430
2256.443448	1.554309	0.220731	10227.319336
2256.444332	1.511151	0.220731	11563.176758
2256.445197	1.469187	0.220731	12834.023437
2256.446268	1.422352	0.220731	14357.362305
2256.447213	1.100068	0.220731	15396.926758
2256.448083	0.125786	0.220731	15506.360352
2256.449022	0.095182	0.220731	15595.736328
2256.450064	0.095277	0.220731	15695.014648
2256.450964	0.095061	0.220731	15780.569336
2256.451833	0.095123	0.220731	15863.231445
2256.452846	0.095226	0.220731	15959.695312
2256.453807	0.095244	0.220731	16051.224609
2256.454688	0.095306	0.220731	16135.189453
2256.455564	0.095306	0.220731	16218.677734
2256.456649	0.095251	0.220731	16322.025391
2257.461182	1.310727	0.247970	557.059204
2257.462216	1.801908	0.247970	2420.231934
2257.463263	1.755154	0.247970	4257.877930
2257.464161	1.702127	0.247970	5786.387695
2257.465081	1.650612	0.247970	7304.950195
2257.466172	1.593179	0.247970	9043.108398
2257.467116	1.545011	0.247970	10501.598633
2257.467981	1.502611	0.247970	11801.357422
2257.469044	1.454041	0.247970	13347.001953
2257.470057	1.409015	0.247970	14774.333984
2257.470948	0.768025	0.247970	15458.644531
2257.471915	0.098987	0.247970	15554.365234
2257.472965	0.095420	0.247970	15654.556641
2257.473883	0.095398	0.247970	15742.131836
2257.474738	0.095486	0.247970	15823.772461
2257.475777	0.095453	0.247970	15922.948242
2257.476787	0.095306	0.247970	16019.208008
2257.477679	0.095358	0.247970	16104.266602
2257.478658	0.095500	0.247970	16197.761719
2257.479709	0.095490	0.247970	16298.121094
2257.480624	0.095365	0.247970	16385.380859
2258.516001	1.404093	0.231680	720.299683
2258.516956	1.804519	0.231680	2443.615234
2258.517817	1.764020	0.231680	3962.436279
2258.518845	1.704159	0.231680	5714.311523
2258.519895	1.646682	0.231680	7443.327637
2258.520776	1.598646	0.231680	8851.734375
2258.521722	1.551570	0.231680	10319.519531
2258.522768	1.499956	0.231680	11888.473633
2258.523711	1.456340	0.231680	13261.802734
2258.524579	1.417573	0.231680	14492.255859
2258.525645	0.797399	0.231680	15342.283203
2258.526659	0.096493	0.231680	15440.126953
2258.527552	0.095347	0.231680	15525.271484
2258.528509	0.095339	0.231680	15616.511719
2258.529558	0.095475	0.231680	15716.665039
2258.530482	0.095237	0.231680	15804.664062
2258.531344	0.095376	0.231680	15886.877930
2258.532411	0.095519	0.231680	15988.796875
2258.533397	0.095277	0.231680	16082.740234
2258.534289	0.095292	0.231680	16167.740234
2258.535277	0.095387	0.231680	16261.982422
2259.541690	1.302217	0.251632	550.837708
2259.542683	1.800967	0.251632	2339.197754
2259.543614	1.763412	0.251632	3980.934082
2259.544524	1.710498	0.251632	5537.487305
2259.545407	1.659965	0.251632	7003.235840
2259.546436	1.605809	0.251632	8655.613281
2259.547340	1.559066	0.251632	10065.008789
2259.548219	1.516476	0.251632	11397.991211
2259.549150	1.471414	0.251632	12767.876953
2259.550138	1.428292	0.251632	14179.029297
2259.551064	1.270576	0.251632	15355.583008
2259.551939	0.182454	0.251632	15515.229492
2259.553019	0.095420	0.251632	15618.283203
2259.553908	0.095219	0.251632	15702.932617
2259.554784	0.095317	0.251632	15786.430664
2259.555666	0.095394	0.251632	15870.568359
2259.556729	0.095328	0.251632	15971.902344
2259.557605	0.095248	0.251632	16055.339844
2259.558480	0.095405	0.251632	16138.819336
2259.559476	0.095350	0.251632	16233.788086
2259.560406	0.095270	0.251632	16322.388672
2260.595986	1.396157	0.228952	705.059387
2260.596913	1.804947	0.228952	2378.245605
2260.597783	1.764485	0.228952	3913.347412
2260.598863	1.703005	0.228952	5752.593262
2260.599866	1.646931	0.228952	7404.465332
2260.600753	1.599906	0.228952	8823.582031
2260.601751	1.550105	0.228952	10370.586914
2260.602813	1.498784	0.228952	11962.295898
2260.603715	1.456124	0.228952	13275.719727
2260.604579	1.415746	0.228952	14498.923828
2260.605683	0.745009	0.228952	15321.413086
2260.606639	0.096270	0.228952	15413.446289
2260.607508	0.095193	0.228952	15496.168945
2260.608510	0.095354	0.228952	15591.713867
2260.609558	0.095354	0.228952	15691.644531
2260.610445	0.095314	0.228952	15776.187500
2260.611308	0.095383	0.228952	15858.502930
2260.612410	0.095416	0.228952	15963.651367
2260.613377	0.095175	0.228952	16055.685547
2260.614245	0.095277	0.228952	16138.385742
2260.615252	0.095394	0.228952	16234.448242
2261.619914	1.316700	0.250049	572.764709
2261.620788	1.804285	0.250049	2149.709473
2261.621673	1.770513	0.250049	3716.613281
2261.622789	1.708608	0.250049	5623.420410
2261.623683	1.657222	0.250049	7104.976562
2261.624551	1.610361	0.250049	8502.770508
2261.625596	1.557392	0.250049	10130.246094
2261.626569	1.509712	0.250049	11599.195312
2261.627450	1.467989	0.250049	12892.494141
2261.628319	1.427043	0.250049	14132.594727
2261.629418	1.099310	0.250049	15340.736328
2261.630306	0.124017	0.250049	15450.863281
2261.631172	0.095259	0.250049	15533.357422
2261.632262	0.095409	0.250049	15637.353516
2261.633236	0.095229	0.250049	15730.107422
2261.634113	0.095288	0.250049	15813.674805
2261.634977	0.095336	0.250049	15896.044922
2261.636095	0.095405	0.250049	16002.708008
2261.636995	0.095317	0.250049	16088.494141
2261.637859	0.095339	0.250049	16170.867187
2261.638947	0.095409	0.250049	16274.671875
2262.675990	1.393213	0.212839	710.538513
2262.676886	1.805343	0.212839	2328.125977
2262.677753	1.764924	0.212839	3858.315430
2262.678876	1.702321	0.212839	5770.021484
2262.679841	1.649066	0.212839	7361.370117
2262.680715	1.602041	0.212839	8761.553711
2262.681760	1.549072	0.212839	10380.333984
2262.682802	1.498715	0.212839	11941.994141
2262.683700	1.456684	0.212839	13250.096680
2262.684633	1.415350	0.212839	14570.618164
2262.685687	0.744034	0.212839	15354.830078
2262.686621	0.096859	0.212839	15445.296875
2262.687487	0.095310	0.212839	15527.834961
2262.688562	0.095394	0.212839	15630.383789
2262.689588	0.095189	0.212839	15728.047852
2262.690467	0.095303	0.212839	15811.819336
2262.691440	0.095409	0.212839	15904.652344
2262.692483	0.095449	0.212839	16004.206055
2262.693408	0.095321	0.212839	16092.377930
2262.694267	0.095383	0.212839	16174.312500
2262.695317	0.095457	0.212839	16274.541992
2263.696827	1.300287	0.250689	546.120422
2263.697718	1.801194	0.250689	2150.984131
2263.698820	1.759332	0.250689	4089.768311
2263.699782	1.703639	0.250689	5728.668945
2263.700651	1.654468	0.250689	7166.401367
2263.701679	1.599935	0.250689	8811.134766
2263.702715	1.547845	0.250689	10414.703125
2263.703613	1.503845	0.250689	11765.156250
2263.704554	1.460065	0.250689	13139.077148
2263.705616	1.412948	0.250689	14639.627930
2263.706564	0.815563	0.250689	15412.781250
2263.707424	0.099954	0.250689	15498.741211
2263.708494	0.095354	0.250689	15600.769531
2263.709478	0.095284	0.250689	15694.529297
2263.710369	0.095219	0.250689	15779.369141
2263.711339	0.095321	0.250689	15871.830078
2263.712384	0.095277	0.250689	15971.394531
2263.713297	0.095259	0.250689	16058.366211
2263.714156	0.095328	0.250689	16140.252930
2263.715230	0.095490	0.250689	16242.808594
2263.716222	0.095255	0.250689	16337.301758
2264.756922	1.300975	0.207614	546.409607
2264.757897	1.800743	0.207614	2302.134521
2264.758959	1.757428	0.207614	4168.522949
2264.759875	1.703796	0.207614	5729.200195
2264.760748	1.653036	0.207614	7172.300781
2264.761841	1.596269	0.207614	8917.023437
2264.762837	1.545355	0.207614	10456.197266
2264.763743	1.502029	0.207614	11817.035156
2264.764728	1.456267	0.207614	13251.458008
2264.765805	1.409601	0.207614	14769.597656
2264.766711	0.737871	0.207614	15438.109375
2264.767570	0.098126	0.207614	15522.399414
2264.768680	0.095339	0.207614	15628.226562
2264.769646	0.095186	0.207614	15720.175781
2264.770516	0.095211	0.207614	15803.009766
2264.771552	0.095328	0.207614	15901.769531
2264.772579	0.095244	0.207614	15999.584961
2264.773470	0.095200	0.207614	16084.408203
2264.774399	0.095354	0.207614	16172.992187
2264.775465	0.095288	0.207614	16274.569336
2264.776400	0.095193	0.207614	16363.574219
2265.773505	1.314657	0.252389	561.358521
2265.774496	1.800516	0.252389	2345.670166
2265.775555	1.755963	0.252389	4205.235352
2265.776475	1.702277	0.252389	5771.330078
2265.777350	1.651146	0.252389	7216.083008
2265.778443	1.594841	0.252389	8959.244141
2265.779440	1.544315	0.252389	10498.926758
2265.780348	1.500542	0.252389	11861.418945
2265.781348	1.454403	0.252389	13315.822266
2265.782401	1.408271	0.252389	14798.732422
2265.783300	0.718279	0.252389	15444.464844
2265.784189	0.097705	0.252389	15531.324219
2265.785274	0.095369	0.252389	15634.798828
2265.786230	0.095273	0.252389	15725.879883
2265.787088	0.095310	0.252389	15807.656250
2265.788124	0.095350	0.252389	15906.439453
2265.789149	0.095229	0.252389	16004.049805
2265.790030	0.095251	0.252389	16087.966797
2265.790949	0.095350	0.252389	16175.593750
2265.792008	0.095325	0.252389	16276.542969
2265.792944	0.095219	0.252389	16365.667969
2266.837511	1.350315	0.206309	675.157471
2266.838584	1.801011	0.206309	2607.642090
2266.839525	1.753638	0.206309	4257.815430
2266.840399	1.702566	0.206309	5745.857910
2266.841439	1.644902	0.206309	7456.556641
2266.842474	1.590370	0.206309	9102.589844
2266.843366	1.545315	0.206309	10481.010742
2266.844320	1.499260	0.206309	11911.304687
2266.845380	1.450085	0.206309	13448.395508
2266.846311	1.409172	0.206309	14760.334961
2266.847188	0.770654	0.206309	15436.199219
2266.848272	0.095995	0.206309	15540.257812
2266.849254	0.095361	0.206309	15633.902344
2266.850146	0.095328	0.206309	15718.935547
2266.851123	0.095405	0.206309	15812.146484
2266.852170	0.095405	0.206309	15912.036133
2266.853071	0.095343	0.206309	15997.940430
2266.853927	0.095369	0.206309	16079.576172
2266.855007	0.095515	0.206309	16182.732422
2266.855999	0.095299	0.206309	16277.269531
2266.856879	0.095350	0.206309	16361.177734
2267.852502	1.344635	0.260816	601.051880
2267.853379	1.804277	0.260816	2183.403076
2267.854240	1.770348	0.260816	3707.672607
2267.855350	1.708279	0.260816	5603.862305
2267.856266	1.656390	0.260816	7121.115723
2267.857147	1.609438	0.260816	8539.031250
2267.858137	1.559041	0.260816	10082.481445
2267.859149	1.508760	0.260816	11609.346680
2267.860048	1.466682	0.260816	12927.893555
2267.861025	1.423381	0.260816	14318.537109
2267.862087	0.973356	0.260816	15352.241211
2267.862995	0.105337	0.260816	15447.886719
2267.863860	0.095222	0.260816	15530.253906
2267.864940	0.095457	0.260816	15633.346680
2267.865903	0.095204	0.260816	15725.028320
2267.866786	0.095273	0.260816	15809.154297
2267.867806	0.095431	0.260816	15906.494141
2267.868840	0.095350	0.260816	16005.085937
2267.869726	0.095328	0.260816	16089.546875
2267.870598	0.095350	0.260816	16172.692383
2267.871687	0.095354	0.260816	16276.533203
2268.918281	1.382611	0.200142	691.305603
2268.919236	1.804420	0.200142	2414.526855
2268.920109	1.764587	0.200142	3955.011719
2268.921142	1.704126	0.200142	5715.374023
2268.922186	1.646290	0.200142	7434.101074
2268.923083	1.598522	0.200142	8867.974609
2268.924034	1.550775	0.200142	10342.761719
2268.925101	1.498414	0.200142	11941.569336
2268.926043	1.454586	0.200142	13311.789062
2268.926914	1.415365	0.200142	14544.572266
2268.927996	0.727573	0.200142	15331.806641
2268.929003	0.095812	0.200142	15428.289062
2268.929896	0.095244	0.200142	15513.341797
2268.930865	0.095376	0.200142	15605.760742
2268.931898	0.095328	0.200142	15704.235352
2268.932806	0.095288	0.200142	15790.756836
2268.933667	0.095369	0.200142	15872.869141
2268.934743	0.095358	0.200142	15975.473633
2268.935738	0.095255	0.200142	16070.252930
2268.936614	0.095197	0.200142	16153.645508
2268.937615	0.095347	0.200142	16249.087891
2269.931835	1.439037	0.262605	795.787354
2269.932758	1.803695	0.262605	2460.597900
2269.933685	1.759962	0.262605	4092.083008
2269.934553	1.708052	0.262605	5574.671875
2269.935602	1.650919	0.262605	7306.486328
2269.936494	1.603315	0.262605	8736.643555
2269.937380	1.558465	0.262605	10117.444336
2269.938383	1.509642	0.262605	11631.615234
2269.939316	1.465184	0.262605	12998.631836
2269.940242	1.424689	0.262605	14317.893555
2269.941105	1.190167	0.262605	15345.007812
2269.942123	0.126050	0.262605	15473.326172
2269.943016	0.095310	0.262605	15558.438477
2269.943888	0.095369	0.262605	15641.599609
2269.944842	0.095314	0.262605	15732.529297
2269.945812	0.095402	0.262605	15825.069336
2269.946731	0.095197	0.262605	15912.554687
2269.947602	0.095321	0.262605	15995.579102
2269.948645	0.095292	0.262605	16094.968750
2269.949538	0.095178	0.262605	16179.962891
2269.950410	0.095270	0.262605	16263.038086
2270.996415	1.310731	0.205729	558.371460
2270.997411	1.801296	0.205729	2352.462646
2270.998452	1.757651	0.205729	4182.177734
2270.999350	1.704836	0.205729	5713.121094
2271.000209	1.654237	0.205729	7134.110840
2271.001307	1.598145	0.205729	8888.873047
2271.002289	1.548527	0.205729	10409.526367
2271.003149	1.505618	0.205729	11704.357422
2271.004214	1.455850	0.205729	13254.836914
2271.005277	1.410201	0.205729	14753.880859
2271.006164	0.787797	0.205729	15452.656250
2271.007092	0.099232	0.205729	15544.744141
2271.008160	0.095226	0.205729	15646.445312
2271.009107	0.095229	0.205729	15736.627930
2271.009975	0.095240	0.205729	15819.296875
2271.011007	0.095354	0.205729	15917.702148
2271.012027	0.095226	0.205729	16014.832031
2271.012925	0.095200	0.205729	16100.322266
2271.013865	0.095310	0.205729	16189.914062
2271.014918	0.095306	0.205729	16290.271484
2271.015854	0.095219	0.205729	16379.396484
2272.011292	1.396179	0.257384	710.655212
2272.012250	1.804208	0.257384	2439.086182
2272.013113	1.764086	0.257384	3961.492187
2272.014154	1.704250	0.257384	5735.617187
2272.015197	1.646122	0.257384	7452.522461
2272.016084	1.598108	0.257384	8870.043945
2272.017038	1.550197	0.257384	10348.931641
2272.018111	1.498480	0.257384	11956.800781
2272.019057	1.454553	0.257384	13332.807617
2272.019918	1.415101	0.257384	14551.209961
2272.020972	0.752351	0.257384	15344.187500
2272.021987	0.096075	0.257384	15441.704102
2272.022875	0.095266	0.257384	15526.300781
2272.023844	0.095350	0.257384	15618.695312
2272.024889	0.095328	0.257384	15718.313477
2272.025808	0.095387	0.257384	15805.973633
2272.026673	0.095299	0.257384	15888.407227
2272.027750	0.095387	0.257384	15991.138672
2272.028733	0.095281	0.257384	16084.799805
2272.029627	0.095226	0.257384	16169.931641
2272.030601	0.095416	0.257384	16262.867187
2273.074205	1.397725	0.206067	712.839539
2273.075231	1.802402	0.206067	2562.104248
2273.076119	1.758387	0.206067	4123.552246
2273.077103	1.702855	0.206067	5799.161621
2273.078168	1.643188	0.206067	7549.157227
2273.079078	1.593966	0.206067	8999.666016
2273.079938	1.548889	0.206067	10331.710937
2273.081007	1.498055	0.206067	11933.131836
2273.082001	1.451869	0.206067	13376.289062
2273.082898	1.412681	0.206067	14643.463867
2273.083905	0.725552	0.206067	15374.094727
2273.084956	0.095812	0.206067	15474.792969
2273.085851	0.095350	0.206067	15560.131836
2273.086719	0.095427	0.206067	15642.962891
2273.087810	0.095405	0.206067	15747.049805
2273.088782	0.095387	0.206067	15839.765625
2273.089648	0.095295	0.206067	15922.291016
2273.090698	0.095405	0.206067	16022.466797
2273.091741	0.095336	0.206067	16121.902344
2273.092632	0.095376	0.206067	16206.882812
2273.093561	0.095409	0.206067	16295.517578
2274.091286	1.403262	0.245779	711.453735
2274.092218	1.804438	0.245779	2393.190430
2274.093083	1.764056	0.245779	3919.099121
2274.094163	1.702379	0.245779	5757.668457
2274.095164	1.646616	0.245779	7405.931152
2274.096061	1.599258	0.245779	8840.464844
2274.097050	1.549504	0.245779	10372.924805
2274.098106	1.498004	0.245779	11954.817383
2274.099020	1.455110	0.245779	13284.788086
2274.099886	1.415361	0.245779	14510.491211
2274.100986	0.736337	0.245779	15320.461914
2274.101933	0.096379	0.245779	15411.733398
2274.102809	0.095262	0.245779	15495.183594
2274.103823	0.095387	0.245779	15591.906250
2274.104874	0.095402	0.245779	15692.173828
2274.105757	0.095204	0.245779	15776.239258
2274.106625	0.095369	0.245779	15859.019531
2274.107729	0.095376	0.245779	15964.314453
2274.108691	0.095237	0.245779	16055.932617
2274.109549	0.095248	0.245779	16137.655273
2274.110561	0.095299	0.245779	16234.097656
2275.153084	1.322476	0.195243	560.729614
2275.154182	1.801860	0.195243	2539.172363
2275.155155	1.754191	0.195243	4246.000000
2275.156047	1.702906	0.195243	5764.992676
2275.157075	1.646213	0.195243	7457.299805
2275.158113	1.591410	0.195243	9109.183594
2275.159003	1.545846	0.195243	10484.986328
2275.159886	1.501333	0.195243	11810.663086
2275.160977	1.452389	0.195243	13395.219727
2275.161932	1.410483	0.195243	14742.231445
2275.162803	0.836891	0.195243	15471.163086
2275.163850	0.097789	0.195243	15573.548828
2275.164866	0.095222	0.195243	15670.294922
2275.165755	0.095208	0.195243	15754.934570
2275.166684	0.095281	0.195243	15843.450195
2275.167752	0.095339	0.195243	15945.272461
2275.168684	0.095248	0.195243	16034.042969
2275.169553	0.095229	0.195243	16116.797852
2275.170577	0.095372	0.195243	16214.458984
2275.171596	0.095211	0.195243	16311.479492
2275.172493	0.095211	0.195243	16396.884766
2276.170760	1.375909	0.249859	687.954712
2276.171719	1.804244	0.249859	2418.225098
2276.172606	1.763222	0.249859	3982.202637
2276.173631	1.704650	0.249859	5729.468262
2276.174681	1.646503	0.249859	7458.295898
2276.175572	1.598339	0.249859	8882.416016
2276.176458	1.552060	0.249859	10257.541992
2276.177554	1.499897	0.249859	11901.429687
2276.178514	1.455414	0.249859	13298.626953
2276.179379	1.416603	0.249859	14523.988281
2276.180441	0.785215	0.249859	15357.886719
2276.181472	0.096544	0.249859	15457.423828
2276.182353	0.095277	0.249859	15541.363281
2276.183280	0.095354	0.249859	15629.756836
2276.184354	0.095328	0.249859	15732.139648
2276.185281	0.095277	0.249859	15820.461914
2276.186151	0.095321	0.249859	15903.391602
2276.187179	0.095273	0.249859	16001.333008
2276.188189	0.095262	0.249859	16097.547852
2276.189079	0.095200	0.249859	16182.276367
2276.190042	0.095339	0.249859	16274.087891
2277.231820	1.321520	0.203143	581.468689
2277.232685	1.803710	0.203143	2141.677734
2277.233757	1.762174	0.203143	4030.728271
2277.234770	1.703141	0.203143	5756.009766
2277.235654	1.653494	0.203143	7217.698242
2277.236639	1.602235	0.203143	8795.899414
2277.237689	1.548043	0.203143	10421.344727
2277.238614	1.502633	0.203143	11811.280273
2277.239481	1.460665	0.203143	13077.676758
2277.240550	1.414636	0.203143	14589.922852
2277.241562	0.778751	0.203143	15378.019531
2277.242442	0.098602	0.203143	15464.789062
2277.243423	0.095226	0.203143	15558.206055
2277.244510	0.095273	0.203143	15661.768555
2277.245387	0.095321	0.203143	15745.365234
2277.246256	0.095325	0.203143	15828.202148
2277.247346	0.095343	0.203143	15932.125977
2277.248318	0.095284	0.203143	16024.742187
2277.249187	0.095270	0.203143	16107.531250
2277.250276	0.095266	0.203143	16211.276367
2277.251315	0.095369	0.203143	16310.364258
2278.250761	1.382560	0.241557	694.044983
2278.251694	1.804519	0.241557	2377.661377
2278.252564	1.764983	0.241557	3913.196533
2278.253628	1.703789	0.241557	5726.028320
2278.254654	1.646646	0.241557	7415.486816
2278.255553	1.598639	0.241557	8852.663086
2278.256510	1.550669	0.241557	10336.653320
2278.257560	1.499465	0.241557	11911.091797
2278.258492	1.455996	0.241557	13268.080078
2278.259359	1.416398	0.241557	14496.096680
2278.260441	0.776880	0.241557	15336.680664
2278.261447	0.096434	0.241557	15433.693359
2278.262322	0.095145	0.241557	15516.945312
2278.263313	0.095394	0.241557	15611.481445
2278.264353	0.095262	0.241557	15710.554687
2278.265249	0.095273	0.241557	15795.919922
2278.266105	0.095325	0.241557	15877.517578
2278.267175	0.095343	0.241557	15979.534180
2278.268164	0.094698	0.241557	16073.191406
2278.269058	0.095244	0.241557	16158.339844
2278.270043	0.095347	0.241557	16252.255859
2279.311117	1.387057	0.198023	689.367249
2279.311997	1.804706	0.198023	2277.508301
2279.312865	1.768425	0.198023	3812.501465
2279.313905	1.708304	0.198023	5589.138184
2279.314869	1.654241	0.198023	7183.826172
2279.315762	1.606223	0.198023	8618.183594
2279.316788	1.553906	0.198023	10212.491211
2279.317822	1.503490	0.198023	11767.099609
2279.318727	1.461244	0.198023	13089.525391
2279.319664	1.419957	0.198023	14420.025391
2279.320739	0.846541	0.198023	15330.056641
2279.321684	0.098540	0.198023	15423.176758
2279.322544	0.095219	0.198023	15505.064453
2279.323603	0.095482	0.198023	15606.179687
2279.324597	0.095244	0.198023	15700.852539
2279.325489	0.095244	0.198023	15785.810547
2279.326463	0.095376	0.198023	15878.707031
2279.327512	0.095383	0.198023	15978.763672
2279.328424	0.095211	0.198023	16065.596680
2279.329285	0.095317	0.198023	16147.665039
2279.330353	0.095409	0.198023	16249.561523
2280.330273	1.409817	0.236509	721.826233
2280.331272	1.802937	0.236509	2522.960205
2280.332172	1.759222	0.236509	4106.260254
2280.333190	1.700746	0.236509	5837.619629
2280.334225	1.643214	0.236509	7538.346191
2280.335125	1.594742	0.236509	8973.614258
2280.335991	1.549138	0.236509	10315.167969
2280.337095	1.497202	0.236509	11968.079102
2280.338063	1.453206	0.236509	13374.782227
2280.338928	1.414486	0.236509	14598.312500
2280.339962	0.751073	0.236509	15374.921875
2280.341004	0.096185	0.236509	15475.146484
2280.341887	0.095303	0.236509	15559.298828
2280.342801	0.095354	0.236509	15646.452148
2280.343863	0.095365	0.236509	15747.729492
2280.344816	0.095248	0.236509	15838.500977
2280.345685	0.095259	0.236509	15921.281250
2280.346701	0.095336	0.236509	16018.142578
2280.347735	0.095350	0.236509	16116.734375
2280.348624	0.095237	0.236509	16201.400391
2280.349564	0.095284	0.236509	16290.967773
2281.390375	1.416449	0.194546	737.969910
2281.391336	1.803977	0.194546	2471.591797
2281.392218	1.761888	0.194546	4025.577393
2281.393126	1.708627	0.194546	5577.010742
2281.394204	1.649777	0.194546	7355.469727
2281.395090	1.601891	0.194546	8774.745117
2281.395955	1.557184	0.194546	10121.708984
2281.397017	1.506163	0.194546	11721.254883
2281.397977	1.460911	0.194546	13123.728516
2281.398849	1.421323	0.194546	14363.122070
2281.399736	1.059225	0.194546	15302.654297
2281.400840	0.106069	0.194546	15419.754883
2281.401742	0.095292	0.194546	15505.708008
2281.402607	0.095310	0.194546	15588.151367
2281.403625	0.095376	0.194546	15685.244141
2281.404595	0.095343	0.194546	15777.726562
2281.405465	0.095325	0.194546	15860.659180
2281.406326	0.095288	0.194546	15942.702148
2281.407423	0.095321	0.194546	16047.269531
2281.408311	0.095328	0.194546	16131.920898
2281.409183	0.095332	0.194546	16215.050781
2282.408379	1.303499	0.243382	548.772888
2282.409332	1.800959	0.243382	2265.087158
2282.410397	1.757670	0.243382	4137.005371
2282.411347	1.702852	0.243382	5754.714355
2282.412217	1.653318	0.243382	7193.100586
2282.413279	1.597244	0.243382	8889.373047
2282.414291	1.546201	0.243382	10454.128906
2282.415187	1.502549	0.243382	11800.412109
2282.416164	1.457798	0.243382	13224.680664
2282.417214	1.410773	0.243382	14705.992187
2282.418134	0.786965	0.243382	15430.000000
2282.418995	0.099302	0.243382	15515.499023
2282.420091	0.095442	0.243382	15620.103516
2282.421079	0.095288	0.243382	15714.248047
2282.421954	0.095336	0.243382	15797.666992
2282.422945	0.095438	0.243382	15892.246094
2282.423984	0.095332	0.243382	15991.295898
2282.424881	0.095332	0.243382	16076.808594
2282.425739	0.095369	0.243382	16158.634766
2282.426855	0.095409	0.243382	16265.111328
2282.427813	0.095288	0.243382	16356.397461
2283.468737	1.312507	0.205528	560.440613
2283.469668	1.801135	0.205528	2237.297363
2283.470710	1.760618	0.205528	4071.861084
2283.471599	1.708286	0.205528	5590.527344
2283.472477	1.658998	0.205528	7047.127441
2283.473422	1.608124	0.205528	8566.804687
2283.474417	1.557356	0.205528	10116.374023
2283.475294	1.514476	0.205528	11444.569336
2283.476185	1.470762	0.205528	12755.017578
2283.477276	1.424421	0.205528	14309.061523
2283.478162	1.213846	0.205528	15384.529297
2283.479025	0.158606	0.205528	15521.406250
2283.480083	0.095369	0.205528	15622.306641
2283.481050	0.095295	0.205528	15714.457031
2283.481923	0.095284	0.205528	15797.640625
2283.482779	0.095314	0.205528	15879.229492
2283.483883	0.095332	0.205528	15984.475586
2283.484788	0.095292	0.205528	16070.714844
2283.485668	0.095431	0.205528	16154.694336
2283.486658	0.095383	0.205528	16249.124023
2283.487658	0.095303	0.205528	16344.426758
2284.488123	1.302909	0.238330	548.524658
2284.489041	1.801344	0.238330	2202.158203
2284.490106	1.759644	0.238330	4076.178711
2284.491057	1.704767	0.238330	5697.412109
2284.491924	1.655372	0.238330	7132.620117
2284.492976	1.599822	0.238330	8815.632812
2284.493999	1.548054	0.238330	10399.291992
2284.494892	1.504497	0.238330	11742.807617
2284.495845	1.460859	0.238330	13135.006836
2284.496895	1.413754	0.238330	14619.448242
2284.497827	0.862800	0.238330	15423.578125
2284.498684	0.102133	0.238330	15511.105469
2284.499743	0.095446	0.238330	15612.182617
2284.500754	0.095325	0.238330	15708.555664
2284.501629	0.095219	0.238330	15791.872070
2284.502584	0.095460	0.238330	15883.036133
2284.503631	0.095270	0.238330	15982.783203
2284.504538	0.095281	0.238330	16069.203125
2284.505406	0.095332	0.238330	16151.951172
2284.506472	0.095453	0.238330	16253.704102
2284.507464	0.095328	0.238330	16348.269531
2285.548227	1.317660	0.202950	569.229126
2285.549106	1.804087	0.202950	2155.021484
2285.549965	1.771842	0.202950	3677.033691
2285.550986	1.714493	0.202950	5427.531250
2285.551913	1.661942	0.202950	6968.151367
2285.552801	1.614287	0.202950	8401.638672
2285.553739	1.566489	0.202950	9871.005859
2285.554667	1.519980	0.202950	11281.547852
2285.555576	1.475552	0.202950	12622.824219
2285.556454	1.435290	0.202950	13883.009766
2285.557475	1.332945	0.202950	15243.947266
2285.558403	0.218881	0.202950	15447.068359
2285.559291	0.095142	0.202950	15531.553711
2285.560148	0.095310	0.202950	15613.234375
2285.561142	0.095299	0.202950	15707.961914
2285.562068	0.095306	0.202950	15796.215820
2285.562930	0.095310	0.202950	15878.373047
2285.563957	0.095321	0.202950	15976.267578
2285.564837	0.095391	0.202950	16060.210937
2285.565763	0.095303	0.202950	16148.460937
2285.566622	0.095303	0.202950	16230.326172
2286.566430	1.396754	0.232542	708.154358
2286.567397	1.803922	0.232542	2452.546875
2286.568258	1.763522	0.232542	3970.938965
2286.569337	1.701595	0.232542	5806.960449
2286.570370	1.644305	0.232542	7505.527832
2286.571243	1.597386	0.232542	8900.045898
2286.572160	1.549629	0.232542	10321.055664
2286.573235	1.498074	0.232542	11931.485352
2286.574187	1.453488	0.232542	13315.205078
2286.575059	1.415471	0.232542	14549.496094
2286.576097	0.771687	0.232542	15350.506836
2286.577121	0.096313	0.232542	15449.131836
2286.578013	0.095211	0.232542	15534.060547
2286.578969	0.095339	0.232542	15625.205078
2286.580031	0.095336	0.232542	15726.451172
2286.580969	0.095303	0.232542	15815.844727
2286.581831	0.095251	0.232542	15897.951172
2286.582903	0.095413	0.232542	16000.233398
2286.583895	0.095332	0.232542	16094.802734
2286.584789	0.095270	0.232542	16179.973633
2286.585766	0.095446	0.232542	16273.223633
2287.628476	1.315422	0.196694	559.054504
2287.629580	1.801644	0.196694	2548.069824
2287.630575	1.752825	0.196694	4292.130371
2287.631463	1.701654	0.196694	5803.199219
2287.632479	1.645470	0.196694	7474.996582
2287.633540	1.589897	0.196694	9161.877930
2287.634429	1.544231	0.196694	10534.699219
2287.635321	1.499762	0.196694	11872.486328
2287.636418	1.450338	0.196694	13463.506836
2287.637378	1.408154	0.196694	14815.334961
2287.638246	0.760280	0.196694	15475.257812
2287.639267	0.096698	0.196694	15573.986328
2287.640302	0.095237	0.196694	15672.556641
2287.641189	0.095251	0.196694	15757.044922
2287.642126	0.095394	0.196694	15846.429687
2287.643168	0.095372	0.196694	15945.807617
2287.644107	0.095336	0.196694	16035.328125
2287.644975	0.095259	0.196694	16118.012695
2287.646015	0.095376	0.196694	16217.204102
2287.647037	0.095303	0.196694	16314.603516
2287.647933	0.095306	0.196694	16399.998047
2288.645052	1.303890	0.234383	554.153381
2288.646064	1.800271	0.234383	2376.027588
2288.647069	1.758007	0.234383	4142.824219
2288.647950	1.705968	0.234383	5645.782227
2288.648822	1.655435	0.234383	7089.321289
2288.649913	1.599236	0.234383	8834.087891
2288.650829	1.551687	0.234383	10255.433594
2288.651714	1.509792	0.234383	11591.599609
2288.652700	1.463698	0.234383	13034.805664
2288.653718	1.417954	0.234383	14478.283203
2288.654616	1.044694	0.234383	15416.417969
2288.655484	0.116704	0.234383	15517.716797
2288.656581	0.095310	0.234383	15622.271484
2288.657494	0.095328	0.234383	15709.306641
2288.658371	0.095431	0.234383	15793.000000
2288.659366	0.095427	0.234383	15887.950195
2288.660361	0.095332	0.234383	15982.805664
2288.661242	0.095266	0.234383	16066.735352
2288.662096	0.095336	0.234383	16148.152344
2288.663155	0.095339	0.234383	16249.117187
2288.664069	0.095248	0.234383	16336.173828
2289.708850	1.410319	0.190583	771.444275
2289.709912	1.800103	0.190583	2683.153320
2289.710826	1.752876	0.190583	4285.281738
2289.711693	1.699797	0.190583	5759.005859
2289.712804	1.640552	0.190583	7581.658691
2289.713776	1.590044	0.190583	9127.181641
2289.714648	1.545535	0.190583	10474.887695
2289.715680	1.495492	0.190583	12018.235352
2289.716726	1.447899	0.190583	13532.738281
2289.717629	1.407356	0.190583	14803.581055
2289.718554	0.704469	0.190583	15455.214844
2289.719624	0.095603	0.190583	15557.509766
2289.720578	0.095281	0.190583	15648.407227
2289.721440	0.095306	0.190583	15730.561523
2289.722494	0.095372	0.190583	15831.083984
2289.723488	0.095262	0.190583	15925.774414
2289.724377	0.095219	0.190583	16010.423828
2289.725334	0.095273	0.190583	16101.600586
2289.726382	0.095435	0.190583	16201.616211
2289.727312	0.095317	0.190583	16290.261719
2289.728167	0.095350	0.190583	16371.786133
2290.724043	1.339266	0.242423	585.259399
2290.724922	1.804065	0.242423	2171.032471
2290.725784	1.770048	0.242423	3696.813477
2290.726849	1.710868	0.242423	5518.887695
2290.727738	1.660624	0.242423	6995.182129
2290.728611	1.613441	0.242423	8403.715820
2290.729599	1.563311	0.242423	9948.266602
2290.730536	1.516688	0.242423	11369.403320
2290.731449	1.473069	0.242423	12714.315430
2290.732333	1.433280	0.242423	13981.334961
2290.733363	1.295815	0.242423	15316.024414
2290.734257	0.190536	0.242423	15486.363281
2290.735132	0.095189	0.242423	15569.654297
2290.736084	0.095266	0.242423	15660.347656
2290.737064	0.095233	0.242423	15753.675781
2290.737936	0.095347	0.242423	15836.818359
2290.738822	0.095321	0.242423	15921.272461
2290.739908	0.095251	0.242423	16024.715820
2290.740779	0.095248	0.242423	16107.676758
2290.741656	0.095145	0.242423	16191.119141
2290.742538	0.095226	0.242423	16275.108398
2291.787967	1.307919	0.198829	555.865417
2291.789016	1.801963	0.198829	2446.124512
2291.790022	1.755458	0.198829	4212.115234
2291.790908	1.703657	0.198829	5721.555664
2291.791888	1.649908	0.198829	7338.465820
2291.792942	1.594098	0.198829	9018.645508
2291.793858	1.546648	0.198829	10435.375000
2291.794719	1.503739	0.198829	11730.093750
2291.795807	1.454846	0.198829	13312.966797
2291.796804	1.410476	0.198829	14719.210937
2291.797686	0.830570	0.198829	15451.773437
2291.798697	0.099207	0.198829	15552.071289
2291.799746	0.095303	0.198829	15652.043945
2291.800648	0.095295	0.198829	15738.000000
2291.801522	0.095339	0.198829	15821.326172
2291.802618	0.095394	0.198829	15925.877930
2291.803588	0.095171	0.198829	16018.193359
2291.804453	0.095237	0.198829	16100.573242
2291.805467	0.095438	0.198829	16197.347656
2291.806496	0.095277	0.198829	16295.387695
2291.807387	0.095299	0.198829	16380.298828
2292.803549	1.338893	0.240570	601.162903
2292.804430	1.803757	0.240570	2190.273193
2292.805454	1.761694	0.240570	3994.248047
2292.806478	1.702599	0.240570	5737.709473
2292.807371	1.652494	0.240570	7213.386719
2292.808325	1.602286	0.240570	8741.967773
2292.809385	1.547966	0.240570	10382.812500
2292.810318	1.502062	0.240570	11784.236328
2292.811190	1.460625	0.240570	13057.901367
2292.812258	1.414329	0.240570	14568.404297
2292.813269	0.780831	0.240570	15357.824219
2292.814163	0.098024	0.240570	15445.457031
2292.815138	0.095413	0.240570	15538.484375
2292.816183	0.095281	0.240570	15638.052734
2292.817099	0.095233	0.240570	15725.286133
2292.817959	0.095251	0.240570	15807.202148
2292.819032	0.095431	0.240570	15909.599609
2292.820017	0.095317	0.240570	16003.487305
2292.820903	0.095215	0.240570	16087.847656
2292.821896	0.095328	0.240570	16182.508789
2292.822923	0.095372	0.240570	16280.456055
2293.866253	1.380604	0.194514	698.585754
2293.867134	1.804669	0.194514	2288.499268
2293.868017	1.765576	0.194514	3847.502930
2293.869117	1.703518	0.194514	5721.373047
2293.870074	1.650249	0.194514	7300.661133
2293.870945	1.603517	0.194514	8697.324219
2293.871987	1.550742	0.194514	10313.197266
2293.873022	1.500714	0.194514	11866.436523
2293.873913	1.458494	0.194514	13165.954102
2293.874858	1.417042	0.194514	14505.058594
2293.875918	0.789532	0.194514	15341.962891
2293.876852	0.097720	0.194514	15433.233398
2293.877712	0.095259	0.194514	15515.156250
2293.878772	0.095347	0.194514	15616.223633
2293.879789	0.095295	0.194514	15713.138672
2293.880661	0.095200	0.194514	15796.153320
2293.881618	0.095460	0.194514	15887.508789
2293.882666	0.095288	0.194514	15987.371094
2293.883587	0.095226	0.194514	16075.074219
2293.884451	0.095273	0.194514	16157.390625
2293.885529	0.095471	0.194514	16260.308594
2294.884282	1.307541	0.236594	551.782532
2294.885327	1.801597	0.236594	2434.450928
2294.886364	1.753674	0.236594	4253.011230
2294.887253	1.702244	0.236594	5766.305664
2294.888222	1.648312	0.236594	7363.519531
2294.889277	1.592186	0.236594	9043.276367
2294.890200	1.545502	0.236594	10469.774414
2294.891075	1.501366	0.236594	11783.469727
2294.892184	1.451298	0.236594	13392.958984
2294.893182	1.406924	0.236594	14797.069336
2294.894089	0.707941	0.236594	15439.171875
2294.895077	0.097064	0.236594	15535.071289
2294.896128	0.095328	0.236594	15635.261719
2294.897012	0.095226	0.236594	15719.441406
2294.897874	0.095358	0.236594	15801.639648
2294.898988	0.095365	0.236594	15907.875977
2294.899957	0.095035	0.236594	15999.964844
2294.900820	0.095266	0.236594	16082.179687
2294.901881	0.095339	0.236594	16183.334961
2294.902907	0.095277	0.236594	16281.088867
2294.903788	0.095303	0.236594	16365.050781
2295.944122	1.303795	0.195775	551.505310
2295.945151	1.801886	0.195775	2405.645996
2295.946184	1.754879	0.195775	4218.436523
2295.947086	1.702570	0.195775	5754.154297
2295.948036	1.650253	0.195775	7321.894531
2295.949087	1.593783	0.195775	8996.959961
2295.950033	1.545736	0.195775	10459.226562
2295.950899	1.502640	0.195775	11760.512695
2295.951969	1.454253	0.195775	13316.563477
2295.952968	1.409674	0.195775	14724.828125
2295.953868	0.799135	0.195775	15444.048828
2295.954860	0.099368	0.195775	15542.621094
2295.955884	0.095244	0.195775	15640.151367
2295.956796	0.095189	0.195775	15726.963867
2295.957652	0.095299	0.195775	15808.540039
2295.958739	0.095295	0.195775	15912.125977
2295.959725	0.095328	0.195775	16006.120117
2295.960599	0.095354	0.195775	16089.459961
2295.961598	0.095336	0.195775	16184.700195
2295.962640	0.095339	0.195775	16284.043945
2295.963519	0.095222	0.195775	16367.744141
2296.964914	1.427256	0.231478	765.009155
2296.965969	1.800721	0.231478	2664.770264
2296.966868	1.754399	0.231478	4241.975586
2296.967784	1.700490	0.231478	5799.624023
2296.968868	1.641196	0.231478	7578.680664
2296.969823	1.591102	0.231478	9098.183594
2296.970695	1.546227	0.231478	10446.493164
2296.971750	1.495477	0.231478	12024.221680
2296.972773	1.448632	0.231478	13506.171875
2296.973664	1.409359	0.231478	14761.911133
2296.974638	0.691146	0.231478	15435.087891
2296.975683	0.095680	0.231478	15535.073242
2296.976604	0.095222	0.231478	15622.772461
2296.977464	0.095240	0.231478	15704.679687
2296.978526	0.095347	0.231478	15805.937500
2296.979529	0.095240	0.231478	15901.463867
2296.980406	0.095325	0.231478	15985.063477
2296.981394	0.095424	0.231478	16079.341797
2296.982429	0.095306	0.231478	16177.984375
2296.983333	0.095251	0.231478	16264.091797
2296.984193	0.095354	0.231478	16346.096680
2298.021149	1.336663	0.187582	699.074524
2298.022218	1.799707	0.187582	2622.961182
2298.023150	1.752927	0.187582	4256.689453
2298.024013	1.701288	0.187582	5724.900879
2298.025063	1.643588	0.187582	7450.667969
2298.026079	1.589670	0.187582	9065.773437
2298.026971	1.545062	0.187582	10443.968750
2298.027943	1.498202	0.187582	11900.220703
2298.029001	1.448957	0.187582	13433.217773
2298.029919	1.408480	0.187582	14726.202148
2298.030794	0.773972	0.187582	15403.427734
2298.031905	0.095760	0.187582	15509.817383
2298.032887	0.095310	0.187582	15603.412109
2298.033765	0.095219	0.187582	15687.013672
2298.034764	0.095460	0.187582	15782.378906
2298.035805	0.095288	0.187582	15881.574219
2298.036703	0.095229	0.187582	15967.089844
2298.037561	0.095200	0.187582	16048.771484
2298.038653	0.095339	0.187582	16152.881836
2298.039623	0.095262	0.187582	16245.286133
2298.040488	0.095270	0.187582	16327.694336
2299.045385	1.387921	0.216416	688.408875
2299.046328	1.804318	0.216416	2389.880371
2299.047196	1.764042	0.216416	3921.068604
2299.048265	1.702826	0.216416	5741.389648
2299.049285	1.645961	0.216416	7420.269531
2299.050168	1.598800	0.216416	8832.009766
2299.051156	1.549860	0.216416	10363.271484
2299.052211	1.498191	0.216416	11943.863281
2299.053123	1.454524	0.216416	13270.388672
2299.053984	1.415988	0.216416	14489.553711
2299.055082	0.759364	0.216416	15323.334961
2299.056080	0.096163	0.216416	15419.305664
2299.056951	0.095332	0.216416	15502.339844
2299.057933	0.095358	0.216416	15595.981445
2299.058996	0.095310	0.216416	15697.295898
2299.059882	0.095204	0.216416	15781.646484
2299.060747	0.095339	0.216416	15864.115234
2299.061853	0.095460	0.216416	15969.694336
2299.062829	0.095310	0.216416	16062.716797
2299.063696	0.095380	0.216416	16145.411133
2299.064773	0.095486	0.216416	16248.249023
2300.099776	1.322692	0.191259	566.112061
2300.100652	1.803648	0.191259	2146.107422
2300.101640	1.765811	0.191259	3890.728271
2300.102634	1.707795	0.191259	5588.276855
2300.103534	1.657705	0.191259	7080.211426
2300.104401	1.608962	0.191259	8475.181641
2300.105507	1.555085	0.191259	10195.106445
2300.106420	1.510173	0.191259	11573.894531
2300.107298	1.468561	0.191259	12863.291016
2300.108325	1.423326	0.191259	14325.046875
2300.109319	1.058060	0.191259	15376.758789
2300.110220	0.116913	0.191259	15482.097656
2300.111076	0.095251	0.191259	15563.632812
2300.112155	0.095372	0.191259	15666.539062
2300.113054	0.095244	0.191259	15752.163086
2300.113922	0.095295	0.191259	15834.879883
2300.114909	0.095464	0.191259	15929.102539
2300.115901	0.095328	0.191259	16023.667969
2300.116798	0.095270	0.191259	16109.125000
2300.117666	0.095266	0.191259	16191.816406
2300.118724	0.095383	0.191259	16292.732422
2301.124894	1.396652	0.216489	706.705750
2301.125913	1.802333	0.216489	2543.282715
2301.126797	1.758937	0.216489	4098.182617
2301.127817	1.700640	0.216489	5832.834961
2301.128865	1.642544	0.216489	7554.220703
2301.129757	1.594720	0.216489	8976.710937
2301.130647	1.547805	0.216489	10354.257812
2301.131763	1.495499	0.216489	12023.235352
2301.132714	1.451323	0.216489	13403.443359
2301.133579	1.413149	0.216489	14625.817383
2301.134626	0.691912	0.216489	15350.249023
2301.135654	0.095680	0.216489	15448.608398
2301.136546	0.095369	0.216489	15533.676758
2301.137494	0.095288	0.216489	15624.009766
2301.138556	0.095295	0.216489	15725.213867
2301.139491	0.095471	0.216489	15814.479492
2301.140358	0.095270	0.216489	15897.078125
2301.141406	0.095391	0.216489	15997.047852
2301.142409	0.095328	0.216489	16092.662109
2301.143305	0.095273	0.216489	16178.027344
2301.144260	0.095464	0.216489	16269.195312
2302.178828	1.385142	0.195836	680.104553
2302.179713	1.804164	0.195836	2276.789551
2302.180586	1.768143	0.195836	3820.378662
2302.181527	1.713098	0.195836	5432.404297
2302.182524	1.657310	0.195836	7084.742187
2302.183447	1.608054	0.195836	8568.976562
2302.184329	1.562604	0.195836	9947.193359
2302.185361	1.512664	0.195836	11508.261719
2302.186274	1.468773	0.195836	12849.251953
2302.187155	1.428867	0.195836	14108.083984
2302.188017	1.265907	0.195836	15199.295898
2302.189072	0.154285	0.195836	15362.066406
2302.189947	0.095244	0.195836	15445.405273
2302.190814	0.095339	0.195836	15528.064453
2302.191811	0.095380	0.195836	15623.158203
2302.192718	0.095332	0.195836	15709.624023
2302.193630	0.095251	0.195836	15796.493164
2302.194511	0.095262	0.195836	15880.418945
2302.195525	0.095350	0.195836	15977.104492
2302.196416	0.095281	0.195836	16062.000000
2302.197294	0.095237	0.195836	16145.618164
2303.204391	1.404939	0.223397	730.568237
2303.205446	1.800850	0.223397	2630.464355
2303.206330	1.755648	0.223397	4182.457520
2303.207292	1.700416	0.223397	5818.257812
2303.208370	1.640149	0.223397	7586.338379
2303.209311	1.590326	0.223397	9082.834961
2303.210187	1.545161	0.223397	10436.396484
2303.211250	1.494532	0.223397	12025.083984
2303.212254	1.448273	0.223397	13479.149414
2303.213145	1.409235	0.223397	14734.777344
2303.214137	0.666262	0.223397	15395.708984
2303.215196	0.095511	0.223397	15496.855469
2303.216117	0.095259	0.223397	15584.588867
2303.216977	0.095361	0.223397	15666.599609
2303.218065	0.095361	0.223397	15770.352539
2303.219034	0.095295	0.223397	15862.693359
2303.219917	0.095288	0.223397	15946.833008
2303.220934	0.095479	0.223397	16043.934570
2303.221986	0.095394	0.223397	16144.289062
2303.222875	0.095310	0.223397	16229.019531
2303.223761	0.095376	0.223397	16313.522461
2304.258789	1.351633	0.856492	585.257202
2304.260771	1.759442	0.856492	4072.471191
2304.262674	1.649583	0.856492	7211.626953
2304.263624	1.599452	0.856492	8731.106445
2304.265231	1.519882	0.856492	11173.556641
2304.266171	1.474255	0.856492	12559.356445
2304.267070	1.433306	0.856492	13847.898437
2304.267982	1.326149	0.856492	15057.345703
2304.269012	0.197003	0.856492	15260.258789
2304.269940	0.095303	0.856492	15348.700195
2304.270802	0.095361	0.856492	15430.901367
2304.271841	0.095336	0.856492	15529.955078
2304.272730	0.095328	0.856492	15614.702148
2304.273592	0.095259	0.856492	15696.815430
2304.274458	0.095336	0.856492	15779.375977
2304.275517	0.095420	0.856492	15880.425781
2304.276406	0.095398	0.856492	15965.234375
2304.277278	0.095387	0.856492	16048.412109
