time (s)	coil I (A)	last det (V)	int current (uC)
1138.555385	1.383087	0.701760	650.050964
1138.556264	1.807104	0.701760	2238.495850
1138.557139	1.773662	0.701760	3790.450195
1138.558155	1.716101	0.701760	5534.008789
1138.559070	1.661759	0.701760	7054.518555
1138.559997	1.611680	0.701760	8548.545898
1138.560879	1.566112	0.701760	9929.856445
1138.561903	1.126879	0.701760	11083.780273
1138.562807	0.115012	0.701760	11187.750977
1138.563686	0.095178	0.701760	11271.413086
1138.564636	0.095361	0.701760	11362.005859
1138.565608	0.095339	0.701760	11454.675781
1138.566528	0.095240	0.701760	11542.296875
1138.567392	0.095336	0.701760	11624.666992
1138.568440	0.095299	0.701760	11724.540039
1138.569321	0.095354	0.701760	11808.546875
1138.570195	0.095328	0.701760	11891.864258
1138.571056	0.095369	0.701760	11973.976562
1139.575061	1.386574	0.775624	700.219666
1139.575949	1.807507	0.775624	2305.286133
1139.576867	1.767744	0.775624	3928.075195
1139.577944	1.705895	0.775624	5765.324219
1139.578905	1.652512	0.775624	7353.388672
1139.579769	1.605037	0.775624	8740.140625
1139.580814	1.552148	0.775624	10362.135742
1139.581857	0.681896	0.775624	11073.352539
1139.582726	0.096387	0.775624	11157.112305
1139.583681	0.095321	0.775624	11248.143555
1139.584731	0.095343	0.775624	11348.253906
1139.585647	0.095248	0.775624	11435.500977
1139.586518	0.095259	0.775624	11518.471680
1139.587576	0.095354	0.775624	11619.356445
1139.588574	0.095317	0.775624	11714.483398
1139.589463	0.095325	0.775624	11799.227539
1139.590416	0.095391	0.775624	11890.134766
1139.591467	0.095383	0.775624	11990.382812
1140.634019	1.351787	0.687202	719.150757
1140.635051	1.804823	0.687202	2581.728027
1140.635942	1.760826	0.687202	4150.624512
1140.636801	1.709564	0.687202	5619.140137
1140.637866	1.650839	0.687202	7377.283203
1140.638817	1.600129	0.687202	8899.005859
1140.639692	1.554448	0.687202	10259.148437
1140.640723	0.775613	0.687202	11058.805664
1140.641751	0.095856	0.687202	11157.345703
1140.642638	0.095237	0.687202	11241.820312
1140.643606	0.095457	0.687202	11334.222656
1140.644658	0.095482	0.687202	11434.669922
1140.645590	0.095365	0.687202	11523.549805
1140.646454	0.095325	0.687202	11605.910156
1140.647535	0.095365	0.687202	11709.000000
1140.648532	0.095347	0.687202	11804.060547
1140.649423	0.095405	0.687202	11889.066406
1140.650397	0.095402	0.687202	11981.987305
1141.653933	1.419866	0.745814	739.750061
1141.654951	1.804721	0.745814	2576.955566
1141.655852	1.760859	0.745814	4163.489746
1141.656809	1.705624	0.745814	5795.771484
1141.657854	1.646547	0.745814	7516.413086
1141.658786	1.597214	0.745814	9005.016602
1141.659650	1.551984	0.745814	10345.930664
1141.660728	0.668093	0.745814	11066.134766
1141.661743	0.095420	0.745814	11162.986328
1141.662621	0.095189	0.745814	11246.562500
1141.663619	0.095251	0.745814	11341.623047
1141.664645	0.095347	0.745814	11439.449219
1141.665544	0.095240	0.745814	11525.070312
1141.666411	0.095295	0.745814	11607.691406
1141.667485	0.095343	0.745814	11710.089844
1141.668480	0.095270	0.745814	11804.882812
1141.669373	0.095208	0.745814	11889.903320
1141.670353	0.095420	0.745814	11983.415039
1142.715206	1.308691	0.677631	569.280762
1142.716078	1.806200	0.677631	2144.287109
1142.717129	1.765957	0.677631	4000.307861
1142.718162	1.706217	0.677631	5762.830078
1142.719060	1.655416	0.677631	7249.394043
1142.720013	1.605106	0.677631	8779.060547
1142.721065	1.550801	0.677631	10410.502930
1142.722011	0.766476	0.677631	11135.588867
1142.722871	0.098240	0.677631	11220.075195
1142.723936	0.095365	0.677631	11321.638672
1142.724937	0.095204	0.677631	11416.937500
1142.725815	0.095292	0.677631	11500.603516
1142.726789	0.095361	0.677631	11593.485352
1142.727818	0.095365	0.677631	11691.616211
1142.728729	0.095317	0.677631	11778.450195
1142.729587	0.095259	0.677631	11860.182617
1142.730632	0.095328	0.677631	11959.800781
1142.731637	0.095325	0.677631	12055.602539
1143.736272	1.343137	0.753915	590.980408
1143.737146	1.805112	0.753915	2168.648437
1143.738190	1.764774	0.753915	4011.072754
1143.739086	1.712805	0.753915	5545.746094
1143.739969	1.663429	0.753915	7014.553711
1143.740957	1.610577	0.753915	8605.804687
1143.741912	1.560385	0.753915	10095.971680
1143.742844	1.119042	0.753915	11138.918945
1143.743708	0.118052	0.753915	11240.916016
1143.744736	0.095219	0.753915	11338.800781
1143.745617	0.095248	0.753915	11422.713867
1143.746495	0.095222	0.753915	11506.319336
1143.747443	0.095270	0.753915	11596.634766
1143.748430	0.095251	0.753915	11690.648437
1143.749294	0.095409	0.753915	11773.082031
1143.750197	0.095328	0.753915	11859.163086
1143.751282	0.095317	0.753915	11962.582031
1143.752176	0.095281	0.753915	12047.762695
1144.794622	1.382406	0.693329	666.319702
1144.795511	1.807192	0.693329	2272.913574
1144.796468	1.767924	0.693329	3964.816406
1144.797520	1.706451	0.693329	5760.003418
1144.798465	1.652860	0.693329	7321.956055
1144.799327	1.605850	0.693329	8706.198242
1144.800385	1.553005	0.693329	10349.278320
1144.801406	0.730378	0.693329	11094.994141
1144.802279	0.097072	0.693329	11179.737305
1144.803249	0.095438	0.693329	11272.312500
1144.804295	0.095325	0.693329	11372.022461
1144.805206	0.095292	0.693329	11458.833008
1144.806072	0.095317	0.693329	11541.377930
1144.807149	0.095413	0.693329	11644.137695
1144.808140	0.095277	0.693329	11738.557617
1144.809031	0.095259	0.693329	11823.433594
1144.810013	0.095482	0.693329	11917.197266
1144.811049	0.095299	0.693329	12015.926758
1145.814863	1.318821	0.747848	581.599976
1145.815730	1.806086	0.747848	2147.477051
1145.816758	1.766671	0.747848	3963.614990
1145.817796	1.706693	0.747848	5735.162109
1145.818699	1.655698	0.747848	7230.257812
1145.819640	1.604864	0.747848	8740.435547
1145.820712	1.550801	0.747848	10402.894531
1145.821661	0.763348	0.747848	11127.312500
1145.822522	0.097903	0.747848	11211.606445
1145.823589	0.095416	0.747848	11313.416016
1145.824601	0.095255	0.747848	11409.814453
1145.825489	0.095233	0.747848	11494.381836
1145.826446	0.095332	0.747848	11585.614258
1145.827497	0.095193	0.747848	11685.662109
1145.828409	0.095306	0.747848	11772.582031
1145.829268	0.095204	0.747848	11854.362305
1145.830343	0.095365	0.747848	11956.879883
1145.831343	0.095251	0.747848	12052.130859
1146.875373	1.350582	0.649259	626.670166
1146.876266	1.806775	0.649259	2240.120117
1146.877131	1.773105	0.649259	3773.856445
1146.878108	1.716379	0.649259	5450.759277
1146.879040	1.662905	0.649259	7000.586914
1146.879942	1.614686	0.649259	8457.034180
1146.880943	1.564303	0.649259	10022.901367
1146.881848	1.213213	0.649259	11120.859375
1146.882766	0.125325	0.649259	11235.907227
1146.883640	0.095160	0.649259	11319.077148
1146.884657	0.095314	0.649259	11416.010742
1146.885599	0.095189	0.649259	11505.678711
1146.886499	0.095325	0.649259	11591.470703
1146.887481	0.095321	0.649259	11685.076172
1146.888391	0.095284	0.649259	11771.785156
1146.889314	0.095281	0.649259	11859.729492
1146.890171	0.095325	0.649259	11941.422852
1146.891207	0.095288	0.649259	12040.141602
1147.895606	1.298174	0.731292	545.232971
1147.896649	1.804435	0.731292	2427.258545
1147.897681	1.757476	0.731292	4240.973633
1147.898578	1.705411	0.731292	5770.727539
1147.899539	1.651875	0.731292	7358.179687
1147.900598	1.594999	0.731292	9047.283203
1147.901530	1.547864	0.731292	10489.892578
1147.902399	0.797531	0.731292	11182.946289
1147.903487	0.095830	0.731292	11287.208984
1147.904483	0.095299	0.731292	11382.126953
1147.905376	0.095273	0.731292	11467.206055
1147.906357	0.095402	0.731292	11560.794922
1147.907381	0.095288	0.731292	11658.370117
1147.908286	0.092560	0.731292	11742.136719
1147.909142	0.094475	0.731292	11823.007812
1147.910220	0.095361	0.731292	11925.807617
1147.911212	0.095310	0.731292	12020.355469
1147.912092	0.095306	0.731292	12104.224609
1148.954250	1.395183	0.687130	682.244568
1148.955131	1.807068	0.687130	2274.271484
1148.955994	1.771754	0.687130	3803.295410
1148.957063	1.710667	0.687130	5631.998047
1148.958003	1.657540	0.687130	7190.085937
1148.958877	1.610625	0.687130	8597.772461
1148.959832	1.561179	0.687130	10088.698242
1148.960875	0.941330	0.687130	11070.505859
1148.961770	0.102056	0.687130	11161.845703
1148.962633	0.095208	0.687130	11244.009766
1148.963676	0.095405	0.687130	11343.517578
1148.964617	0.095292	0.687130	11433.187500
1148.965501	0.095237	0.687130	11517.376953
1148.966428	0.095288	0.687130	11605.708984
1148.967476	0.095328	0.687130	11705.613281
1148.968364	0.095321	0.687130	11790.258789
1148.969228	0.095266	0.687130	11872.568359
1148.970264	0.095416	0.687130	11971.419922
1149.975611	1.313613	0.736013	556.972046
1149.976703	1.803988	0.736013	2526.926758
1149.977704	1.755868	0.736013	4284.550293
1149.978587	1.704364	0.736013	5789.503906
1149.979585	1.648579	0.736013	7434.786133
1149.980660	1.592988	0.736013	9147.249023
1149.981547	1.546575	0.736013	10519.060547
1149.982464	0.725416	0.736013	11184.267578
1149.983542	0.095632	0.736013	11287.359375
1149.984498	0.095284	0.736013	11378.451172
1149.985362	0.095321	0.736013	11460.808594
1149.986377	0.095486	0.736013	11557.726562
1149.987411	0.095292	0.736013	11656.257812
1149.988302	0.095284	0.736013	11741.156250
1149.989230	0.095398	0.736013	11829.685547
1149.990301	0.095292	0.736013	11931.743164
1149.991247	0.095299	0.736013	12021.896484
1149.992111	0.095229	0.736013	12104.174805
1151.033994	1.390192	0.640409	685.364502
1151.034880	1.807236	0.640409	2286.575928
1151.035828	1.767437	0.640409	3962.105713
1151.036892	1.705708	0.640409	5776.979004
1151.037826	1.652933	0.640409	7320.818848
1151.038684	1.606029	0.640409	8698.791992
1151.039750	1.552855	0.640409	10354.135742
1151.040783	0.713551	0.640409	11091.234375
1151.041653	0.096746	0.640409	11175.403320
1151.042606	0.095255	0.640409	11266.181641
1151.043644	0.095372	0.640409	11365.177734
1151.044566	0.095211	0.640409	11452.962891
1151.045433	0.095310	0.640409	11535.596680
1151.046505	0.095387	0.640409	11637.851562
1151.047501	0.095208	0.640409	11732.678711
1151.048389	0.095193	0.640409	11817.209961
1151.049354	0.095343	0.640409	11909.215820
1151.050398	0.095376	0.640409	12008.788086
1152.056876	1.391338	0.706897	749.931091
1152.057814	1.805881	0.706897	2443.847900
1152.058744	1.762877	0.706897	4083.323730
1152.059611	1.710505	0.706897	5566.332031
1152.060678	1.652508	0.706897	7329.558594
1152.061565	1.604923	0.706897	8753.125000
1152.062437	1.560015	0.706897	10113.458008
1152.063419	0.982698	0.706897	11078.466797
1152.064368	0.101371	0.706897	11174.667969
1152.065283	0.095240	0.706897	11261.813477
1152.066164	0.095200	0.706897	11345.684570
1152.067186	0.095306	0.706897	11443.087891
1152.068079	0.095229	0.706897	11528.127930
1152.068957	0.095244	0.706897	11611.751953
1152.069878	0.095332	0.706897	11699.552734
1152.070869	0.095284	0.706897	11793.979492
1152.071797	0.095189	0.706897	11882.315430
1152.072658	0.095255	0.706897	11964.330078
1153.113942	1.346818	0.670436	606.067932
1153.114827	1.806694	0.670436	2204.992432
1153.115824	1.768000	0.670436	3967.688965
1153.116863	1.707096	0.670436	5741.361816
1153.117766	1.655468	0.670436	7236.249023
1153.118631	1.607974	0.670436	8627.146484
1153.119726	1.553606	0.670436	10328.344727
1153.120727	0.768684	0.670436	11097.797852
1153.121602	0.097874	0.670436	11183.437500
1153.122603	0.095358	0.670436	11278.890625
1153.123654	0.095303	0.670436	11379.053711
1153.124522	0.095317	0.670436	11461.789062
1153.125397	0.095292	0.670436	11545.168945
1153.126486	0.095339	0.670436	11648.993164
1153.127454	0.095288	0.670436	11741.232422
1153.128324	0.095310	0.670436	11824.152344
1153.129340	0.095446	0.670436	11921.125000
1153.130386	0.095387	0.670436	12020.899414
1154.136601	1.395476	0.722228	703.319946
1154.137526	1.806401	0.722228	2374.241211
1154.138405	1.767627	0.722228	3927.985352
1154.139387	1.711666	0.722228	5608.841797
1154.140422	1.652900	0.722228	7319.593750
1154.141313	1.604769	0.722228	8749.443359
1154.142176	1.559692	0.722228	10095.458008
1154.143227	0.905966	0.722228	11047.627930
1154.144163	0.099174	0.722228	11140.454102
1154.145037	0.095270	0.722228	11223.719727
1154.145986	0.095394	0.722228	11314.249023
1154.147012	0.095259	0.722228	11411.984375
1154.147902	0.095237	0.722228	11496.745117
1154.148836	0.095273	0.722228	11585.730469
1154.149898	0.095303	0.722228	11686.942383
1154.150842	0.095270	0.722228	11776.876953
1154.151704	0.095303	0.722228	11859.028320
1154.152753	0.095427	0.722228	11959.131836
1155.193366	1.384834	0.634983	703.495667
1155.194268	1.807042	0.634983	2333.447754
1155.195131	1.767085	0.634983	3858.441895
1155.196233	1.705312	0.634983	5737.696289
1155.197214	1.651216	0.634983	7357.539062
1155.198091	1.604246	0.634983	8764.462891
1155.199141	1.550354	0.634983	10392.334961
1155.200188	0.630820	0.634983	11052.803711
1155.201087	0.095837	0.634983	11138.961914
1155.202001	0.095222	0.634983	11225.995117
1155.203076	0.095416	0.634983	11328.567383
1155.204022	0.095310	0.634983	11418.730469
1155.204883	0.095277	0.634983	11500.763672
1155.205939	0.095361	0.634983	11601.464844
1155.206955	0.095277	0.634983	11698.266602
1155.207848	0.095248	0.634983	11783.323242
1155.208802	0.095336	0.634983	11874.273437
1155.209849	0.095306	0.634983	11974.059570
1156.217168	1.319235	0.700495	587.059387
1156.218033	1.805698	0.700495	2148.988281
1156.219066	1.766671	0.700495	3973.959473
1156.220100	1.706821	0.700495	5738.812500
1156.220975	1.656475	0.700495	7188.227539
1156.221899	1.606608	0.700495	8672.733398
1156.222977	1.551976	0.700495	10345.763672
1156.223931	0.814362	0.700495	11122.665039
1156.224799	0.098899	0.700495	11208.509766
1156.225836	0.095457	0.700495	11307.498047
1156.226863	0.095229	0.700495	11405.298828
1156.227754	0.095244	0.700495	11490.161133
1156.228706	0.095361	0.700495	11580.945312
1156.229767	0.095339	0.700495	11682.100586
1156.230693	0.095288	0.700495	11770.336914
1156.231551	0.095328	0.700495	11852.128906
1156.232608	0.095369	0.700495	11952.933594
1156.233611	0.095325	0.700495	12048.543945
1157.273358	1.391122	0.658114	680.258545
1157.274235	1.806603	0.658114	2264.649414
1157.275112	1.771630	0.658114	3818.368652
1157.276056	1.716639	0.658114	5438.875977
1157.277047	1.660320	0.658114	7084.252930
1157.277964	1.611185	0.658114	8561.709961
1157.278847	1.565273	0.658114	9943.846680
1157.279873	1.108542	0.658114	11081.210937
1157.280774	0.113060	0.658114	11183.078125
1157.281650	0.095248	0.658114	11266.515625
1157.282506	0.095336	0.658114	11348.123047
1157.283565	0.095303	0.658114	11449.048828
1157.284451	0.095347	0.658114	11533.526367
1157.285326	0.095222	0.658114	11616.845703
1157.286325	0.095314	0.658114	11712.064453
1157.287259	0.095295	0.658114	11801.070312
1157.288178	0.095332	0.658114	11888.680664
1157.289038	0.095303	0.658114	11970.640625
1158.297284	1.321326	0.724963	569.491333
1158.298145	1.803761	0.724963	2122.529541
1158.299245	1.762819	0.724963	4061.630127
1158.300208	1.706759	0.724963	5705.239258
1158.301091	1.657031	0.724963	7168.397949
1158.302119	1.602843	0.724963	8816.121094
1158.303168	1.549402	0.724963	10441.443359
1158.304059	0.818903	0.724963	11171.085937
1158.304957	0.099258	0.724963	11260.219727
1158.306026	0.095416	0.724963	11362.219727
1158.306980	0.095251	0.724963	11453.089844
1158.307842	0.095350	0.724963	11535.282227
1158.308864	0.095409	0.724963	11632.790039
1158.309906	0.095295	0.724963	11732.087891
1158.310777	0.095204	0.724963	11815.010742
1158.311706	0.095391	0.724963	11903.628906
1158.312771	0.095325	0.724963	12005.149414
1158.313714	0.095306	0.724963	12095.023437
1159.351353	1.316393	0.662198	554.201416
1159.352446	1.804032	0.662198	2526.008301
1159.353440	1.755780	0.662198	4271.253906
1159.354342	1.703749	0.662198	5808.035156
1159.355325	1.649231	0.662198	7429.229492
1159.356383	1.593743	0.662198	9115.409180
1159.357287	1.546923	0.662198	10513.827148
1159.358206	0.738047	0.662198	11192.091797
1159.359273	0.095804	0.662198	11294.315430
1159.360219	0.095325	0.662198	11384.492187
1159.361080	0.095292	0.662198	11466.538086
1159.362122	0.095339	0.662198	11565.881836
1159.363134	0.095394	0.662198	11662.420898
1159.364013	0.095394	0.662198	11746.272461
1159.364952	0.095486	0.662198	11835.933594
1159.366023	0.095394	0.662198	11938.100586
1159.366962	0.095248	0.662198	12027.538086
1159.367820	0.095365	0.662198	12109.361328
1160.377663	1.304191	0.708463	555.585266
1160.378702	1.803896	0.708463	2429.833740
1160.379740	1.757018	0.708463	4253.618164
1160.380618	1.705093	0.708463	5750.689453
1160.381569	1.652087	0.708463	7321.824707
1160.382631	1.595515	0.708463	9016.261719
1160.383562	1.548007	0.708463	10457.456055
1160.384441	0.811952	0.708463	11171.162109
1160.385505	0.096372	0.708463	11273.702148
1160.386510	0.095332	0.708463	11369.510742
1160.387398	0.095277	0.708463	11454.117187
1160.388365	0.095416	0.708463	11546.384766
1160.389428	0.095511	0.708463	11647.913086
1160.390351	0.095288	0.708463	11735.864258
1160.391214	0.095317	0.708463	11818.123047
1160.392302	0.095431	0.708463	11921.952148
1160.393279	0.095193	0.708463	12014.956055
1160.394179	0.095336	0.708463	12100.757812
1161.432459	1.382992	0.664309	697.027893
1161.433403	1.806489	0.664309	2402.353760
1161.434273	1.766788	0.664309	3939.459473
1161.435328	1.705942	0.664309	5739.228516
1161.436350	1.648806	0.664309	7424.308594
1161.437247	1.601539	0.664309	8860.889648
1161.438199	1.553148	0.664309	10339.486328
1161.439256	0.685389	0.664309	11063.943359
1161.440186	0.095907	0.664309	11153.136719
1161.441047	0.095303	0.664309	11235.192383
1161.442115	0.095468	0.664309	11337.151367
1161.443111	0.095240	0.664309	11432.010742
1161.443998	0.095273	0.664309	11516.518555
1161.444987	0.095427	0.664309	11610.896484
1161.446039	0.095431	0.664309	11711.290039
1161.446941	0.095365	0.664309	11797.309570
1161.447801	0.095358	0.664309	11879.317383
1161.448895	0.095446	0.664309	11983.734375
1162.458556	1.365209	0.706816	756.325623
1162.459588	1.803303	0.706816	2617.334473
1162.460478	1.758431	0.706816	4182.338379
1162.461339	1.706898	0.706816	5651.977539
1162.462397	1.648649	0.706816	7396.248047
1162.463335	1.598415	0.706816	8895.561523
1162.464219	1.553745	0.706816	10269.072266
1162.465179	0.865499	0.706816	11099.951172
1162.466208	0.096603	0.706816	11199.355469
1162.467094	0.095270	0.706816	11283.764648
1162.467955	0.095339	0.706816	11365.851562
1162.469000	0.095325	0.706816	11465.465820
1162.469955	0.095266	0.706816	11556.445312
1162.470833	0.095284	0.706816	11640.105469
1162.471761	0.095380	0.706816	11728.618164
1162.472798	0.095259	0.706816	11827.401367
1162.473681	0.095255	0.706816	11911.511719
1162.474541	0.095240	0.706816	11993.418945
1163.511833	1.397607	0.661554	704.394165
1163.512840	1.805087	0.661554	2522.116455
1163.513732	1.761998	0.661554	4093.818848
1163.514718	1.705818	0.661554	5775.755371
1163.515766	1.646646	0.661554	7501.439941
1163.516682	1.597866	0.661554	8965.085937
1163.517548	1.551628	0.661554	10308.795898
1163.518634	0.682870	0.661554	11050.392578
1163.519622	0.095618	0.661554	11144.863281
1163.520492	0.095380	0.661554	11227.843750
1163.521465	0.095453	0.661554	11320.719727
1163.522530	0.095365	0.661554	11422.283203
1163.523417	0.095277	0.661554	11506.793945
1163.524283	0.095332	0.661554	11589.351562
1163.525369	0.095336	0.661554	11692.885742
1163.526339	0.095365	0.661554	11785.389648
1163.527221	0.095413	0.661554	11869.543945
1163.528220	0.095464	0.661554	11964.912109
1164.539143	1.374771	0.691686	686.010498
1164.540038	1.806614	0.691686	2302.929687
1164.540906	1.767382	0.691686	3837.016846
1164.542028	1.705082	0.691686	5750.118652
1164.542993	1.651630	0.691686	7343.941406
1164.543863	1.604378	0.691686	8739.750000
1164.544883	1.552588	0.691686	10323.389648
1164.545927	0.710570	0.691686	11065.224609
1164.546820	0.096365	0.691686	11151.278320
1164.547717	0.095350	0.691686	11236.807617
1164.548812	0.095325	0.691686	11341.188477
1164.549771	0.095219	0.691686	11432.502930
1164.550638	0.095284	0.691686	11515.114258
1164.551685	0.095442	0.691686	11615.041992
1164.552697	0.095295	0.691686	11711.480469
1164.553581	0.095244	0.691686	11795.676758
1164.554539	0.095328	0.691686	11887.000977
1164.555586	0.095376	0.691686	11986.859375
1165.591951	1.386585	0.675677	700.225159
1165.592909	1.806222	0.675677	2430.585693
1165.593775	1.766459	0.675677	3960.338867
1165.594815	1.706041	0.675677	5734.621582
1165.595848	1.648557	0.675677	7437.581055
1165.596748	1.600060	0.675677	8877.634766
1165.597696	1.552723	0.675677	10349.616211
1165.598758	0.672202	0.675677	11063.495117
1165.599706	0.095585	0.675677	11154.109375
1165.600568	0.095325	0.675677	11236.279297
1165.601631	0.095376	0.675677	11337.664062
1165.602636	0.095211	0.675677	11433.351562
1165.603518	0.095266	0.675677	11517.375977
1165.604497	0.095314	0.675677	11610.688477
1165.605542	0.095332	0.675677	11710.310547
1165.606460	0.095295	0.675677	11797.791992
1165.607317	0.095380	0.675677	11879.532227
1165.608392	0.095376	0.675677	11982.061523
1166.619843	1.323278	0.687786	570.332642
1166.620723	1.805603	0.687786	2159.263184
1166.621585	1.772282	0.687786	3686.969727
1166.622659	1.712893	0.687786	5526.616699
1166.623558	1.661887	0.687786	7020.653320
1166.624438	1.614653	0.687786	8441.547852
1166.625458	1.563285	0.687786	10036.098633
1166.626384	1.148895	0.687786	11099.975586
1166.627320	0.117246	0.687786	11209.717773
1166.628181	0.095299	0.687786	11291.770508
1166.629212	0.095219	0.687786	11389.940430
1166.630092	0.095336	0.687786	11473.835937
1166.630959	0.095317	0.687786	11556.476562
1166.631922	0.095347	0.687786	11648.295898
1166.632871	0.095292	0.687786	11738.727539
1166.633785	0.095266	0.687786	11825.800781
1166.634661	0.095321	0.687786	11909.301758
1166.635686	0.095431	0.687786	12007.118164
1167.672330	1.396989	0.654448	687.318359
1167.673216	1.806445	0.654448	2287.829102
1167.674176	1.766525	0.654448	3983.692871
1167.675224	1.705012	0.654448	5770.545898
1167.676156	1.652483	0.654448	7310.660156
1167.677021	1.605531	0.654448	8699.444336
1167.678102	1.551427	0.654448	10376.537109
1167.679119	0.697174	0.654448	11085.563477
1167.679997	0.096716	0.654448	11170.480469
1167.680986	0.095442	0.654448	11264.872070
1167.682041	0.095394	0.654448	11365.512695
1167.682941	0.095295	0.654448	11451.278320
1167.683809	0.095372	0.654448	11534.061523
1167.684874	0.095413	0.654448	11635.675781
1167.685861	0.095237	0.654448	11729.674805
1167.686756	0.095259	0.654448	11814.931641
1167.687736	0.095365	0.654448	11908.389648
1167.688790	0.095354	0.654448	12008.892578
1168.700221	1.309724	0.660744	557.942444
1168.701252	1.804083	0.660744	2417.952148
1168.702280	1.757523	0.660744	4224.686035
1168.703183	1.704833	0.660744	5764.149902
1168.704138	1.652413	0.660744	7342.204590
1168.705183	1.595848	0.660744	9009.866211
1168.706123	1.548138	0.660744	10465.116211
1168.706995	0.816167	0.660744	11176.813477
1168.708071	0.096277	0.660744	11280.407227
1168.709061	0.095259	0.660744	11374.713867
1168.709941	0.095354	0.660744	11458.625000
1168.710918	0.095372	0.660744	11551.803711
1168.711957	0.095277	0.660744	11650.796875
1168.712860	0.095310	0.660744	11736.862305
1168.713715	0.095321	0.660744	11818.361328
1168.714806	0.095420	0.660744	11922.464844
1168.715797	0.095350	0.660744	12016.957031
1168.716672	0.095332	0.660744	12100.372070
1169.752779	1.326515	0.642931	581.013550
1169.753658	1.805735	0.642931	2168.254395
1169.754519	1.772897	0.642931	3694.718262
1169.755567	1.713354	0.642931	5490.313477
1169.756466	1.662913	0.642931	6985.271973
1169.757347	1.615558	0.642931	8408.578125
1169.758333	1.565405	0.642931	9952.067383
1169.759277	1.205123	0.642931	11089.704102
1169.760207	0.122684	0.642931	11203.800781
1169.761070	0.095277	0.642931	11286.025391
1169.762103	0.095339	0.642931	11384.510742
1169.762992	0.095229	0.642931	11469.169922
1169.763869	0.095229	0.642931	11552.686523
1169.764809	0.095372	0.642931	11642.336914
1169.765792	0.095277	0.642931	11735.994141
1169.766708	0.095273	0.642931	11823.264648
1169.767569	0.095317	0.642931	11905.333008
1169.768638	0.095380	0.642931	12007.293945
1170.778639	1.389071	0.641203	694.535583
1170.779527	1.806511	0.641203	2298.717529
1170.780449	1.766810	0.641203	3927.716797
1170.781522	1.704968	0.641203	5757.147461
1170.782473	1.652058	0.641203	7328.254883
1170.783335	1.604864	0.641203	8711.648437
1170.784399	1.551676	0.641203	10362.631836
1170.785427	0.693417	0.641203	11075.463867
1170.786300	0.096544	0.641203	11159.747070
1170.787267	0.095405	0.641203	11252.003906
1170.788318	0.095449	0.641203	11352.321289
1170.789237	0.095358	0.641203	11439.955078
1170.790105	0.095361	0.641203	11522.728516
1170.791158	0.095424	0.641203	11623.209961
1170.792153	0.095358	0.641203	11718.090820
1170.793046	0.095369	0.641203	11803.254883
1170.794018	0.095449	0.641203	11896.031250
1170.795069	0.095413	0.641203	11996.309570
1171.832403	1.324105	0.635559	589.226868
1171.833267	1.805153	0.635559	2148.878662
1171.834308	1.764576	0.635559	3985.802734
1171.835351	1.704979	0.635559	5764.096191
1171.836231	1.655127	0.635559	7220.607910
1171.837202	1.603605	0.635559	8777.708008
1171.838267	1.549153	0.635559	10427.555664
1171.839187	0.777286	0.635559	11142.659180
1171.840057	0.098027	0.635559	11227.943359
1171.841141	0.095420	0.635559	11331.378906
1171.842130	0.095288	0.635559	11425.619141
1171.843025	0.095306	0.635559	11510.917969
1171.844005	0.095453	0.635559	11604.461914
1171.845059	0.095413	0.635559	11705.026367
1171.845965	0.095317	0.635559	11791.383789
1171.846825	0.095358	0.635559	11873.391602
1171.847929	0.095427	0.635559	11978.743164
1171.848895	0.095306	0.635559	12070.809570
1172.858654	1.431255	0.616944	738.527527
1172.859556	1.806508	0.616944	2367.997314
1172.860438	1.767784	0.616944	3927.183105
1172.861444	1.710930	0.616944	5648.378906
1172.862388	1.656141	0.616944	7211.776367
1172.863318	1.606886	0.616944	8706.180664
1172.864188	1.561252	0.616944	10064.470703
1172.865221	1.028892	0.616944	11127.315430
1172.866090	0.108080	0.616944	11221.236328
1172.866964	0.095248	0.616944	11304.482422
1172.867923	0.095416	0.616944	11395.986328
1172.868876	0.095332	0.616944	11486.837891
1172.869793	0.095270	0.616944	11574.200195
1172.870673	0.095358	0.616944	11658.115234
1172.871705	0.095361	0.616944	11756.528320
1172.872610	0.095336	0.616944	11842.806641
1172.873493	0.095350	0.616944	11927.000977
1172.874375	0.095409	0.616944	12011.151367
1173.912512	1.317528	0.600102	565.219543
1173.913430	1.802835	0.600102	2220.221680
1173.914515	1.760251	0.600102	4130.094727
1173.915464	1.705712	0.600102	5748.814941
1173.916328	1.656394	0.600102	7179.939453
1173.917387	1.600528	0.600102	8874.899414
1173.918410	1.548637	0.600102	10459.154297
1173.919302	0.797282	0.600102	11170.329102
1173.920281	0.098745	0.600102	11267.000977
1173.921329	0.095380	0.600102	11366.958984
1173.922258	0.095292	0.600102	11455.485352
1173.923117	0.095328	0.600102	11537.372070
1173.924181	0.095383	0.600102	11638.860352
1173.925177	0.095292	0.600102	11733.770508
1173.926058	0.095233	0.600102	11817.670898
1173.927035	0.095350	0.600102	11910.828125
1173.928091	0.095317	0.600102	12011.483398
1173.929000	0.095361	0.600102	12098.166992
1174.937032	1.418408	0.631897	802.819031
1174.938074	1.802593	0.631897	2681.120605
1174.938976	1.756311	0.631897	4265.313477
1174.939839	1.703218	0.631897	5735.190430
1174.940948	1.644001	0.631897	7558.388184
1174.941916	1.592820	0.631897	9100.238281
1174.942790	1.548592	0.631897	10453.708008
1174.943840	0.583638	0.631897	11066.527344
1174.944870	0.095295	0.631897	11164.681641
1174.945765	0.095303	0.631897	11249.977539
1174.946686	0.095328	0.631897	11337.775391
1174.947744	0.095354	0.631897	11438.660156
1174.948686	0.095365	0.631897	11528.494141
1174.949554	0.095332	0.631897	11611.242187
1174.950591	0.095526	0.631897	11710.302734
1174.951615	0.095288	0.631897	11807.877930
1174.952505	0.095343	0.631897	11892.733398
1174.953446	0.095405	0.631897	11982.509766
1175.991686	1.412318	0.602740	693.448181
1175.992587	1.805991	0.602740	2320.646240
1175.993518	1.766287	0.602740	3965.059082
1175.994391	1.713589	0.602740	5461.021973
1175.995394	1.658818	0.602740	7124.816895
1175.996328	1.608966	0.602740	8627.590820
1175.997196	1.563842	0.602740	9985.005859
1175.998240	1.068120	0.602740	11100.123047
1175.999119	0.111837	0.602740	11198.427734
1176.000043	0.095288	0.602740	11286.473633
1176.000901	0.095266	0.602740	11368.211914
1176.001866	0.095288	0.602740	11460.165039
1176.002788	0.095226	0.602740	11547.962891
1176.003659	0.095193	0.602740	11630.875977
1176.004694	0.095325	0.602740	11729.537109
1176.005602	0.095171	0.602740	11815.952148
1176.006522	0.095288	0.602740	11903.617187
1176.007396	0.095314	0.602740	11986.920898
1177.016910	1.444189	0.599743	828.964722
1177.017966	1.801919	0.599743	2731.791016
1177.018855	1.755615	0.599743	4292.533203
1177.019759	1.701676	0.599743	5830.848145
1177.020849	1.642540	0.599743	7621.216797
1177.021803	1.592391	0.599743	9140.358398
1177.022664	1.547355	0.599743	10472.630859
1177.023686	0.614128	0.599743	11100.270508
1177.024725	0.095262	0.599743	11199.248047
1177.025616	0.095145	0.599743	11284.022461
1177.026556	0.095303	0.599743	11373.607422
1177.027608	0.095310	0.599743	11473.874023
1177.028546	0.095237	0.599743	11563.206055
1177.029411	0.095292	0.599743	11645.633789
1177.030454	0.095405	0.599743	11745.141602
1177.031472	0.095365	0.599743	11842.223633
1177.032360	0.095266	0.599743	11926.820312
1177.033312	0.095328	0.599743	12017.573242
1178.072507	1.302382	0.582792	547.000244
1178.073420	1.802589	0.582792	2192.764160
1178.074498	1.762482	0.582792	4092.719482
1178.075398	1.709414	0.582792	5631.192383
1178.076270	1.660181	0.582792	7078.870117
1178.077315	1.603982	0.582792	8755.031250
1178.078281	1.554221	0.582792	10256.409180
1178.079172	1.012445	0.582792	11158.498047
1178.080036	0.107695	0.582792	11251.546875
1178.081138	0.095262	0.582792	11356.526367
1178.082024	0.095266	0.582792	11440.932617
1178.082885	0.095262	0.582792	11522.953125
1178.083966	0.095361	0.582792	11626.039062
1178.084933	0.095244	0.582792	11718.140625
1178.085802	0.095284	0.582792	11800.942383
1178.086656	0.095288	0.582792	11882.318359
1178.087764	0.095244	0.582792	11987.848633
1178.088654	0.095229	0.582792	12072.602539
1179.095988	1.309889	0.612936	550.153381
1179.097090	1.803300	0.612936	2537.389404
1179.098088	1.754268	0.612936	4288.148437
1179.098984	1.702855	0.612936	5813.906738
1179.099973	1.648173	0.612936	7443.949219
1179.101048	1.591824	0.612936	9155.160156
1179.101941	1.545787	0.612936	10535.547852
1179.102830	0.711354	0.612936	11167.941406
1179.103919	0.095566	0.612936	11272.013672
1179.104882	0.095303	0.612936	11363.790039
1179.105744	0.095281	0.612936	11445.921875
1179.106774	0.095416	0.612936	11544.200195
1179.107808	0.095328	0.612936	11642.769531
1179.108692	0.095248	0.612936	11726.968750
1179.109609	0.095464	0.612936	11814.508789
1179.110674	0.095475	0.612936	11916.189453
1179.111609	0.095229	0.612936	12005.229492
1179.112468	0.095332	0.612936	12087.120117
1180.151249	1.343438	0.574618	600.516602
1180.152129	1.805955	0.574618	2189.756592
1180.153114	1.767700	0.574618	3930.941406
1180.154171	1.706136	0.574618	5734.327637
1180.155088	1.654651	0.574618	7251.642578
1180.155958	1.605795	0.574618	8648.683594
1180.157074	1.550980	0.574618	10379.577148
1180.158050	0.766919	0.574618	11128.089844
1180.158915	0.097643	0.574618	11212.550781
1180.159993	0.095394	0.574618	11315.385742
1180.161032	0.095354	0.574618	11414.458984
1180.161923	0.095237	0.574618	11499.315430
1180.162851	0.095394	0.574618	11587.841797
1180.163907	0.095383	0.574618	11688.566406
1180.164865	0.095262	0.574618	11779.828125
1180.165729	0.095303	0.574618	11862.169922
1180.166788	0.095402	0.574618	11963.200195
1180.167806	0.095303	0.574618	12060.218750
1181.174730	1.316415	0.614487	572.640381
1181.175608	1.805647	0.614487	2157.998535
1181.176549	1.770890	0.614487	3824.405762
1181.177595	1.710425	0.614487	5613.510254
1181.178497	1.658588	0.614487	7109.556641
1181.179366	1.611658	0.614487	8510.086914
1181.180421	1.558088	0.614487	10153.870117
1181.181379	1.013936	0.614487	11125.220703
1181.182251	0.106879	0.614487	11218.418945
1181.183151	0.095299	0.614487	11304.188477
1181.184219	0.095354	0.614487	11406.026367
1181.185098	0.095288	0.614487	11489.784180
1181.185960	0.095350	0.614487	11571.976562
1181.186973	0.095391	0.614487	11668.607422
1181.187945	0.095332	0.614487	11761.270508
1181.188824	0.095284	0.614487	11845.025391
1181.189682	0.095416	0.614487	11926.892578
1181.190793	0.095398	0.614487	12032.879883
1182.231491	1.318019	0.569672	568.066101
1182.232357	1.804039	0.569672	2130.364014
1182.233440	1.763419	0.569672	4040.146973
1182.234435	1.704957	0.569672	5736.579590
1182.235325	1.654933	0.569672	7209.469727
1182.236326	1.602762	0.569672	8813.834961
1182.237381	1.549310	0.569672	10448.357422
1182.238279	0.798981	0.569672	11165.841797
1182.239137	0.098793	0.569672	11250.605469
1182.240233	0.095438	0.569672	11355.206055
1182.241190	0.095288	0.569672	11446.396484
1182.242046	0.095281	0.569672	11527.957031
1182.243091	0.095416	0.569672	11627.666992
1182.244148	0.095409	0.569672	11728.514648
1182.245021	0.095332	0.569672	11811.739258
1182.245926	0.095372	0.569672	11898.050781
1182.246998	0.095394	0.569672	12000.313477
1182.247950	0.095328	0.569672	12091.066406
1183.254486	1.328229	0.605612	587.077087
1183.255357	1.805490	0.605612	2159.658447
1183.256382	1.765071	0.605612	3968.855957
1183.257418	1.705730	0.605612	5735.992187
1183.258318	1.654860	0.605612	7225.365723
1183.259260	1.604832	0.605612	8737.117187
1183.260313	1.550830	0.605612	10370.141602
1183.261250	0.811926	0.605612	11130.916992
1183.262109	0.098972	0.605612	11215.933594
1183.263170	0.095413	0.605612	11317.166016
1183.264180	0.095350	0.605612	11413.469727
1183.265055	0.095317	0.605612	11496.872070
1183.266027	0.095409	0.605612	11589.609375
1183.267068	0.095398	0.605612	11688.918945
1183.267993	0.095310	0.605612	11777.081055
1183.268849	0.095398	0.605612	11858.742187
1183.269914	0.095519	0.605612	11960.469727
1183.270917	0.095299	0.605612	12056.054687
1184.310463	1.444413	0.557087	797.315857
1184.311381	1.805457	0.557087	2454.724854
1184.312310	1.762057	0.557087	4091.675781
1184.313179	1.709436	0.557087	5577.175781
1184.314229	1.652673	0.557087	7312.482910
1184.315115	1.604952	0.557087	8734.470703
1184.315990	1.559795	0.557087	10099.291016
1184.317017	0.968895	0.557087	11094.346680
1184.317924	0.102832	0.557087	11187.615234
1184.318828	0.095328	0.557087	11273.791992
1184.319706	0.095325	0.557087	11357.487305
1184.320734	0.095347	0.557087	11455.503906
1184.321623	0.095244	0.557087	11540.175781
1184.322503	0.095383	0.557087	11624.113281
1184.323464	0.095427	0.557087	11715.819336
1184.324426	0.095325	0.557087	11807.521484
1184.325347	0.095193	0.557087	11895.194336
1184.326210	0.095332	0.557087	11977.465820
1185.334345	1.315869	0.600633	573.718933
1185.335211	1.804852	0.600633	2136.720947
1185.336262	1.764137	0.600633	3990.829102
1185.337293	1.704767	0.600633	5748.443848
1185.338185	1.654504	0.600633	7224.261719
1185.339146	1.603799	0.600633	8765.512695
1185.340214	1.549369	0.600633	10420.238281
1185.341150	0.760247	0.600633	11131.829102
1185.342014	0.097822	0.600633	11216.347656
1185.343103	0.095369	0.600633	11320.204102
1185.344098	0.095299	0.600633	11415.026367
1185.344994	0.095332	0.600633	11500.444336
1185.345996	0.095226	0.600633	11595.860352
1185.347039	0.095383	0.600633	11695.344727
1185.347931	0.095321	0.600633	11780.371094
1185.348788	0.095295	0.600633	11862.039062
1185.349868	0.095416	0.600633	11965.088867
1185.350840	0.095160	0.600633	12057.583984
1186.390030	1.387756	0.566248	695.265930
1186.390961	1.806163	0.566248	2376.803955
1186.391824	1.766792	0.566248	3901.545410
1186.392915	1.704756	0.566248	5761.434082
1186.393915	1.648513	0.566248	7409.947266
1186.394796	1.601949	0.566248	8821.264648
1186.395789	1.551991	0.566248	10362.391602
1186.396845	0.669086	0.566248	11068.946289
1186.397749	0.095995	0.566248	11155.725586
1186.398604	0.095336	0.566248	11237.237305
1186.399707	0.095317	0.566248	11342.372070
1186.400688	0.095208	0.566248	11435.770508
1186.401562	0.095244	0.566248	11519.013672
1186.402548	0.095460	0.566248	11613.137695
1186.403607	0.095288	0.566248	11714.047852
1186.404497	0.095240	0.566248	11798.811523
1186.405363	0.095215	0.566248	11881.267578
1186.406460	0.095402	0.566248	11985.922852
1187.414764	1.362345	0.590998	637.577454
1187.415652	1.805881	0.590998	2241.200195
1187.416647	1.765316	0.590998	3997.689697
1187.417577	1.707766	0.590998	5585.912109
1187.418508	1.658661	0.590998	7130.125488
1187.419376	1.610479	0.590998	8528.020508
1187.420426	1.558323	0.590998	10164.259766
1187.421305	1.103844	0.590998	11134.539062
1187.422186	0.114858	0.590998	11235.729492
1187.423149	0.095273	0.590998	11327.477539
1187.424098	0.095171	0.590998	11417.794922
1187.425016	0.095160	0.590998	11505.151367
1187.425891	0.095208	0.590998	11588.458008
1187.426924	0.090879	0.590998	11682.335937
1187.427815	0.089766	0.590998	11762.317383
1187.428693	0.095248	0.590998	11845.945312
1187.429592	0.095281	0.590998	11931.602539
1187.430602	0.095255	0.590998	12027.810547
1188.468895	1.383032	0.561998	728.857971
1188.469946	1.802531	0.561998	2623.317627
1188.470872	1.755985	0.561998	4249.359863
1188.471737	1.704192	0.561998	5723.485840
1188.472833	1.644441	0.561998	7525.792969
1188.473832	1.591044	0.561998	9115.246094
1188.474733	1.546073	0.561998	10508.257812
1188.475741	0.597008	0.561998	11110.041992
1188.476786	0.095251	0.561998	11209.580078
1188.477676	0.095248	0.561998	11294.350586
1188.478550	0.095372	0.561998	11377.706055
1188.479640	0.095394	0.561998	11481.685547
1188.480600	0.095281	0.561998	11573.155273
1188.481459	0.095208	0.561998	11654.938477
1188.482514	0.095229	0.561998	11755.405273
1188.483537	0.095211	0.561998	11852.806641
1188.484419	0.095295	0.561998	11936.857422
1188.485345	0.095365	0.561998	12025.165039
1189.494599	1.325354	0.568504	575.203613
1189.495463	1.803311	0.568504	2133.263916
1189.496565	1.762591	0.568504	4075.639648
1189.497468	1.709143	0.568504	5618.996094
1189.498343	1.659869	0.568504	7071.381836
1189.499352	1.606582	0.568504	8692.422852
1189.500363	1.554694	0.568504	10264.217773
1189.501254	1.008197	0.568504	11162.521484
1189.502110	0.107516	0.568504	11254.554687
1189.503177	0.095424	0.568504	11356.372070
1189.504091	0.095277	0.568504	11443.455078
1189.504969	0.095288	0.568504	11527.118164
1189.505944	0.095431	0.568504	11620.163086
1189.506954	0.095277	0.568504	11716.392578
1189.507844	0.095240	0.568504	11801.156250
1189.508705	0.095350	0.568504	11883.252930
1189.509782	0.095464	0.568504	11986.067383
1189.510719	0.095332	0.568504	12075.393555
1190.548488	1.347239	0.538500	673.619385
1190.549549	1.802454	0.538500	2586.022461
1190.550488	1.756128	0.538500	4235.026367
1190.551354	1.705470	0.538500	5711.963379
1190.552403	1.647469	0.538500	7440.158691
1190.553410	1.593516	0.538500	9044.829102
1190.554301	1.548750	0.538500	10424.765625
1190.555263	0.750311	0.538500	11146.565430
1190.556311	0.095786	0.538500	11246.949219
1190.557239	0.095299	0.538500	11335.386719
1190.558095	0.095314	0.538500	11416.975586
1190.559136	0.095427	0.538500	11516.315430
1190.560148	0.095226	0.538500	11612.683594
1190.561036	0.095299	0.538500	11697.309570
1190.561997	0.095369	0.538500	11788.958984
1190.563045	0.095350	0.538500	11888.885742
1190.563959	0.095229	0.538500	11975.925781
1190.564824	0.095208	0.538500	12058.280273
1191.575199	1.372115	0.561394	718.988525
1191.576249	1.802461	0.561394	2611.572510
1191.577177	1.755934	0.561394	4241.079102
1191.578047	1.704093	0.561394	5723.640137
1191.579147	1.644221	0.561394	7532.283203
1191.580141	1.591132	0.561394	9113.868164
1191.581020	1.546988	0.561394	10473.670898
1191.582025	0.632465	0.561394	11109.297852
1191.583066	0.095380	0.561394	11208.587891
1191.583959	0.095200	0.561394	11293.601562
1191.584817	0.095314	0.561394	11375.380859
1191.585909	0.095409	0.561394	11479.567383
1191.586860	0.095211	0.561394	11570.113281
1191.587741	0.095277	0.561394	11654.052734
1191.588734	0.095383	0.561394	11748.768555
1191.589790	0.095317	0.561394	11849.423828
1191.590683	0.095251	0.561394	11934.483398
1191.591543	0.095255	0.561394	12016.402344
1192.627936	1.339830	0.548841	609.622803
1192.628800	1.804933	0.548841	2169.084961
1192.629822	1.764796	0.548841	3972.706543
1192.630727	1.712069	0.548841	5522.128906
1192.631610	1.662513	0.548841	6990.128418
1192.632567	1.611423	0.548841	8532.260742
1192.633538	1.560886	0.548841	10047.880859
1192.634458	1.163210	0.548841	11118.034180
1192.635341	0.121201	0.548841	11225.054687
1192.636393	0.095200	0.548841	11325.205078
1192.637288	0.095197	0.548841	11410.406250
1192.638165	0.095142	0.548841	11493.845703
1192.639051	0.095284	0.548841	11578.267578
1192.640088	0.095237	0.548841	11677.028320
1192.640977	0.095306	0.548841	11761.755859
1192.641843	0.095288	0.548841	11844.275391
1192.642837	0.095273	0.548841	11938.977539
1192.643751	0.095233	0.548841	12026.020508
1193.654084	1.318180	0.561172	565.499207
1193.655070	1.802197	0.561172	2342.465576
1193.656116	1.758776	0.561172	4182.145020
1193.657027	1.705298	0.561172	5735.671387
1193.657892	1.654926	0.561172	7167.182129
1193.658988	1.598441	0.561172	8919.073242
1193.659977	1.548025	0.561172	10450.070312
1193.660864	0.814614	0.561172	11172.632812
1193.661860	0.098361	0.561172	11270.599609
1193.662913	0.095306	0.561172	11370.957031
1193.663796	0.095193	0.561172	11455.012695
1193.664652	0.095350	0.561172	11536.632812
1193.665763	0.095259	0.561172	11642.464844
1193.666726	0.095273	0.561172	11734.212891
1193.667596	0.095240	0.561172	11817.072266
1193.668630	0.095416	0.561172	11915.732422
1193.669675	0.095262	0.561172	12015.281250
1193.670565	0.095211	0.561172	12100.019531
1194.707647	1.304041	0.538017	552.913208
1194.708677	1.803516	0.538017	2410.534180
1194.709707	1.757823	0.538017	4221.092285
1194.710584	1.705909	0.538017	5717.174805
1194.711553	1.652347	0.538017	7318.299316
1194.712610	1.595552	0.538017	9004.797852
1194.713534	1.548461	0.538017	10435.575195
1194.714412	0.828226	0.538017	11162.757812
1194.715484	0.096291	0.538017	11265.982422
1194.716472	0.095303	0.538017	11360.141602
1194.717361	0.095277	0.538017	11444.842773
1194.718343	0.095376	0.538017	11538.501953
1194.719389	0.095317	0.538017	11638.204102
1194.720299	0.095240	0.538017	11724.873047
1194.721166	0.095303	0.538017	11807.500977
1194.722265	0.095405	0.538017	11912.351562
1194.723227	0.095233	0.538017	12003.965820
1194.724110	0.095303	0.538017	12088.118164
1195.733448	1.316005	0.566876	575.094055
1195.734326	1.805065	0.566876	2159.940918
1195.735194	1.772362	0.566876	3698.351074
1195.736250	1.712629	0.566876	5506.887695
1195.737150	1.661587	0.566876	7002.315918
1195.738032	1.614426	0.566876	8426.240234
1195.739001	1.565398	0.566876	9943.111328
1195.739970	1.182737	0.566876	11089.183594
1195.740904	0.117777	0.566876	11199.187500
1195.741767	0.095229	0.566876	11281.370117
1195.742806	0.095336	0.566876	11380.423828
1195.743680	0.095277	0.566876	11463.696289
1195.744550	0.095299	0.566876	11546.606445
1195.745466	0.095317	0.566876	11633.916992
1195.746445	0.095127	0.566876	11727.045898
1195.747361	0.095299	0.566876	11814.339844
1195.748230	0.095277	0.566876	11897.135742
1195.749300	0.095336	0.566876	11999.144531
1196.786512	1.324669	0.545083	590.802490
1196.787383	1.805241	0.545083	2163.166992
1196.788427	1.764727	0.545083	4005.541504
1196.789456	1.705031	0.545083	5760.018066
1196.790343	1.654519	0.545083	7227.576660
1196.791298	1.603850	0.545083	8759.253906
1196.792365	1.549962	0.545083	10413.063477
1196.793288	0.787826	0.545083	11140.226562
1196.794154	0.098353	0.545083	11225.400391
1196.795206	0.095431	0.545083	11325.793945
1196.796222	0.095251	0.545083	11422.569336
1196.797109	0.095244	0.545083	11507.050781
1196.798080	0.095328	0.545083	11599.614258
1196.799130	0.095325	0.545083	11699.705078
1196.800050	0.095273	0.545083	11787.356445
1196.800908	0.095350	0.545083	11869.166992
1196.801992	0.095446	0.545083	11972.629883
1196.802980	0.095240	0.545083	12066.727539
1197.813213	1.341086	0.550928	604.829956
1197.814081	1.804493	0.550928	2171.130371
1197.815158	1.762452	0.550928	4069.291504
1197.816163	1.703434	0.550928	5781.242676
1197.817040	1.653885	0.550928	7231.700195
1197.818027	1.601418	0.550928	8812.300781
1197.819079	1.547805	0.550928	10440.591797
1197.819991	0.769918	0.550928	11142.756836
1197.820859	0.098031	0.550928	11227.847656
1197.821946	0.095563	0.550928	11331.724609
1197.822920	0.095292	0.550928	11424.539062
1197.823804	0.095255	0.550928	11508.744141
1197.824803	0.095457	0.550928	11604.105469
1197.825853	0.095416	0.550928	11704.292969
1197.826745	0.095270	0.550928	11789.273437
1197.827628	0.095328	0.550928	11873.448242
1197.828715	0.095416	0.550928	11977.166016
1197.829686	0.095314	0.550928	12069.715820
1198.866884	1.318279	0.502234	570.814758
1198.867763	1.805328	0.502234	2157.698486
1198.868744	1.768586	0.502234	3892.681641
1198.869701	1.711956	0.502234	5531.022949
1198.870618	1.660675	0.502234	7053.861816
1198.871487	1.613507	0.502234	8455.999023
1198.872522	1.561084	0.502234	10071.720703
1198.873404	1.197103	0.502234	11127.565430
1198.874281	0.129811	0.502234	11241.409180
1198.875233	0.095413	0.502234	11332.242187
1198.876232	0.095328	0.502234	11427.475586
1198.877108	0.095303	0.502234	11510.960937
1198.877987	0.095398	0.502234	11594.815430
1198.879093	0.095325	0.502234	11700.244141
1198.879988	0.095288	0.502234	11785.527344
1198.880852	0.095398	0.502234	11867.951172
1198.881875	0.095424	0.502234	11965.569336
1198.882847	0.095387	0.502234	12058.285156
1199.892463	1.368787	0.552491	652.911255
1199.893342	1.805870	0.552491	2240.271240
1199.894301	1.767616	0.552491	3935.415039
1199.895370	1.704708	0.552491	5757.748047
1199.896314	1.651615	0.552491	7316.872559
1199.897183	1.604586	0.552491	8711.257812
1199.898266	1.550409	0.552491	10390.350586
1199.899266	0.694014	0.552491	11084.364258
1199.900149	0.096639	0.552491	11169.697266
1199.901142	0.095372	0.552491	11264.402344
1199.902187	0.095369	0.552491	11364.062500
1199.903086	0.095295	0.552491	11449.733398
1199.903943	0.095350	0.552491	11531.448242
1199.905014	0.095490	0.552491	11633.717773
1199.906004	0.095383	0.552491	11728.147461
1199.906878	0.095416	0.552491	11811.541016
1199.907851	0.095387	0.552491	11904.352539
1199.908905	0.095394	0.552491	12004.898437
1200.945889	1.352102	0.497214	611.150146
1200.946766	1.805724	0.497214	2194.770020
1200.947756	1.765759	0.497214	3942.871826
1200.948826	1.704243	0.497214	5766.412109
1200.949737	1.652589	0.497214	7271.920898
1200.950607	1.604048	0.497214	8667.442383
1200.951722	1.549453	0.497214	10395.083008
1200.952696	0.731283	0.497214	11107.352539
1200.953564	0.097262	0.497214	11191.776367
1200.954581	0.095350	0.497214	11288.748047
1200.955618	0.095387	0.497214	11387.664062
1200.956508	0.095310	0.497214	11472.490234
1200.957442	0.095431	0.497214	11561.623047
1200.958509	0.095508	0.497214	11663.530273
1200.959453	0.095361	0.497214	11753.551758
1200.960315	0.095394	0.497214	11835.781250
1200.961365	0.095493	0.497214	11936.048828
1200.962375	0.095402	0.497214	12032.404297
1201.971609	1.397201	0.534633	713.969666
1201.972579	1.805372	0.534633	2465.180908
1201.973440	1.764573	0.534633	3984.478027
1201.974478	1.703969	0.534633	5753.197266
1201.975525	1.646012	0.534633	7476.571777
1201.976423	1.598115	0.534633	8911.679687
1201.977365	1.549823	0.534633	10371.613281
1201.978445	0.613539	0.534633	11034.235352
1201.979383	0.095442	0.534633	11123.759766
1201.980247	0.095284	0.534633	11206.085937
1201.981306	0.095409	0.534633	11307.124023
1201.982321	0.095365	0.534633	11403.919922
1201.983215	0.095273	0.534633	11489.094727
1201.984180	0.095460	0.534633	11581.213867
1201.985230	0.095262	0.534633	11681.239258
1201.986147	0.095284	0.534633	11768.615234
1201.987010	0.095376	0.534633	11850.924805
1201.988081	0.095449	0.534633	11953.151367
1203.024942	1.417229	0.490330	746.879639
1203.025886	1.805482	0.490330	2451.254883
1203.026753	1.764939	0.490330	3981.457031
1203.027815	1.703657	0.490330	5790.741211
1203.028849	1.645895	0.490330	7492.596680
1203.029741	1.598412	0.490330	8918.379883
1203.030719	1.550017	0.490330	10434.296875
1203.031771	0.621101	0.490330	11087.695312
1203.032683	0.095581	0.490330	11174.865234
1203.033540	0.095314	0.490330	11256.548828
1203.034583	0.095504	0.490330	11356.159180
1203.035596	0.095237	0.490330	11452.633789
1203.036485	0.095262	0.490330	11537.322266
1203.037460	0.095398	0.490330	11630.334961
1203.038511	0.095387	0.490330	11730.586914
1203.039427	0.095292	0.490330	11817.874023
1203.040289	0.095273	0.490330	11900.000000
1203.041373	0.095457	0.490330	12003.474609
1204.051002	1.316089	0.537856	558.021729
1204.052052	1.804556	0.537856	2452.805176
1204.052951	1.763020	0.537856	4037.760254
1204.053829	1.712432	0.537856	5541.275391
1204.054798	1.658445	0.537856	7148.308594
1204.055778	1.605352	0.537856	8721.552734
1204.056707	1.557744	0.537856	10168.697266
1204.057575	1.139213	0.537856	11157.534180
1204.058614	0.106985	0.537856	11268.691406
1204.059489	0.095219	0.537856	11352.007812
1204.060355	0.095233	0.537856	11434.479492
1204.061258	0.095391	0.537856	11520.617187
1204.062282	0.095262	0.537856	11618.166016
1204.063206	0.095240	0.537856	11706.167969
1204.064090	0.095314	0.537856	11790.425781
1204.065081	0.095277	0.537856	11884.845703
1204.066001	0.095255	0.537856	11972.480469
1204.066921	0.095178	0.537856	12060.044922
1205.104063	1.430182	0.481508	798.041504
1205.105121	1.801783	0.481508	2704.328369
1205.106013	1.755132	0.481508	4269.906250
1205.106898	1.701833	0.481508	5776.028809
1205.108019	1.641522	0.481508	7616.175293
1205.108980	1.590875	0.481508	9145.006836
1205.109851	1.546791	0.481508	10492.261719
1205.110883	0.573823	0.481508	11084.447266
1205.111919	0.095248	0.481508	11183.124023
1205.112813	0.095259	0.481508	11268.285156
1205.113767	0.095424	0.481508	11359.319336
1205.114819	0.095372	0.481508	11459.651367
1205.115757	0.095365	0.481508	11549.103516
1205.116618	0.095328	0.481508	11631.181641
1205.117669	0.095435	0.481508	11731.483398
1205.118676	0.095387	0.481508	11827.538086
1205.119558	0.095435	0.481508	11911.710937
1205.120544	0.095468	0.481508	12005.841797
1206.129847	1.305916	0.529526	549.790466
1206.130897	1.803138	0.529526	2443.085693
1206.131915	1.755890	0.529526	4230.581543
1206.132812	1.704346	0.529526	5759.379883
1206.133773	1.650978	0.529526	7345.969727
1206.134825	1.594618	0.529526	9023.507812
1206.135750	1.548018	0.529526	10455.423828
1206.136622	0.819269	0.529526	11169.826172
1206.137705	0.096156	0.529526	11273.962891
1206.138697	0.095339	0.529526	11368.539062
1206.139594	0.095270	0.529526	11453.996094
1206.140585	0.095479	0.529526	11548.615234
1206.141649	0.095486	0.529526	11650.211914
1206.142548	0.095391	0.529526	11735.967773
1206.143411	0.095380	0.529526	11818.280273
1206.144517	0.095409	0.529526	11923.802734
1206.145469	0.095347	0.529526	12014.573242
1206.146333	0.095372	0.529526	12096.974609
1207.183815	1.328943	0.469407	578.090149
1207.184681	1.803505	0.469407	2139.925293
1207.185698	1.766847	0.469407	3936.808594
1207.186630	1.712406	0.469407	5532.770996
1207.187511	1.662352	0.469407	6997.303223
1207.188526	1.608204	0.469407	8629.630859
1207.189425	1.561674	0.469407	10033.575195
1207.190348	1.178789	0.469407	11121.597656
1207.191219	0.127529	0.469407	11232.675781
1207.192223	0.095321	0.469407	11328.377930
1207.193141	0.095314	0.469407	11415.875977
1207.194006	0.095339	0.469407	11498.344727
1207.195008	0.095413	0.469407	11593.948242
1207.195899	0.095361	0.469407	11678.915039
1207.196809	0.095435	0.469407	11765.760742
1207.197688	0.095288	0.469407	11849.518555
1207.198635	0.095270	0.469407	11939.739258
1207.199586	0.095383	0.469407	12030.449219
1208.208168	1.414739	0.525586	749.811523
1208.209064	1.805735	0.525586	2367.750000
1208.209960	1.764481	0.525586	3948.725098
1208.211046	1.702826	0.525586	5797.994141
1208.212008	1.649590	0.525586	7384.899414
1208.212872	1.602898	0.525586	8769.803711
1208.213920	1.550237	0.525586	10394.452148
1208.214952	0.660278	0.525586	11075.859375
1208.215828	0.096277	0.525586	11160.198242
1208.216755	0.095354	0.525586	11248.591797
1208.217829	0.095394	0.525586	11351.044922
1208.218748	0.095219	0.525586	11438.550781
1208.219614	0.095306	0.525586	11521.085937
1208.220659	0.095383	0.525586	11620.761719
1208.221675	0.095284	0.525586	11717.570312
1208.222564	0.095281	0.525586	11802.275391
1208.223533	0.095405	0.525586	11894.722656
1208.224587	0.095391	0.525586	11995.264648
1209.263155	1.295376	0.462885	542.762512
1209.264054	1.802205	0.462885	2162.944336
1209.265087	1.764309	0.462885	3985.475586
1209.265973	1.712769	0.462885	5502.988281
1209.266837	1.662074	0.462885	6939.020020
1209.267929	1.605915	0.462885	8692.679687
1209.268835	1.558956	0.462885	10105.093750
1209.269712	1.169333	0.462885	11130.599609
1209.270700	0.120084	0.462885	11249.243164
1209.271693	0.095292	0.462885	11343.868164
1209.272582	0.095295	0.462885	11428.585937
1209.273446	0.095336	0.462885	11510.956055
1209.274533	0.095350	0.462885	11614.601562
1209.275447	0.095336	0.462885	11701.738281
1209.276328	0.095314	0.462885	11785.709961
1209.277299	0.095522	0.462885	11878.461914
1209.278306	0.095347	0.462885	11974.475586
1209.279193	0.095332	0.462885	12059.035156
1210.287374	1.387441	0.535520	700.657898
1210.288333	1.805211	0.535520	2431.855469
1210.289217	1.764477	0.535520	3991.653564
1210.290233	1.705437	0.535520	5724.377441
1210.291292	1.647140	0.535520	7468.698730
1210.292188	1.598350	0.535520	8900.820312
1210.293100	1.551621	0.535520	10315.898437
1210.294199	0.644366	0.535520	11024.056641
1210.295153	0.095431	0.535520	11115.097656
1210.296017	0.095332	0.535520	11197.464844
1210.297066	0.095409	0.535520	11297.548828
1210.298091	0.095339	0.535520	11395.271484
1210.298989	0.095292	0.535520	11480.843750
1210.299937	0.095420	0.535520	11571.301758
1210.300969	0.095299	0.535520	11669.650391
1210.301896	0.095306	0.535520	11757.999023
1210.302751	0.095365	0.535520	11839.536133
1210.303814	0.095336	0.535520	11940.877930
1211.342265	1.301096	0.475208	547.761475
1211.343229	1.802113	0.475208	2284.998535
1211.344291	1.759178	0.475208	4153.246094
1211.345216	1.705052	0.475208	5730.419922
1211.346090	1.654717	0.475208	7176.642578
1211.347177	1.598020	0.475208	8913.690430
1211.348167	1.547922	0.475208	10446.133789
1211.349067	0.791821	0.475208	11158.772461
1211.350041	0.098280	0.475208	11254.497070
1211.351091	0.095295	0.475208	11354.557617
1211.351987	0.095343	0.475208	11439.985352
1211.352847	0.095369	0.475208	11522.001953
1211.353937	0.095424	0.475208	11626.013672
1211.354905	0.095306	0.475208	11718.270508
1211.355775	0.095292	0.475208	11801.174805
1211.356781	0.095365	0.475208	11897.112305
1211.357832	0.095306	0.475208	11997.279297
1211.358711	0.095336	0.475208	12081.079102
1212.366792	1.437338	0.510629	779.036987
1212.367828	1.802582	0.510629	2646.511719
1212.368725	1.756882	0.510629	4222.435059
1212.369649	1.703188	0.510629	5796.181152
1212.370723	1.643434	0.510629	7561.229004
1212.371678	1.592552	0.510629	9082.116211
1212.372544	1.548450	0.510629	10423.073242
1212.373622	0.576918	0.510629	11044.990234
1212.374620	0.095273	0.510629	11140.073242
1212.375509	0.095328	0.510629	11224.820312
1212.376495	0.095482	0.510629	11318.965820
1212.377526	0.095409	0.510629	11417.332031
1212.378441	0.095288	0.510629	11504.520508
1212.379297	0.095310	0.510629	11586.105469
1212.380380	0.095457	0.510629	11689.485352
1212.381370	0.095343	0.510629	11783.875000
1212.382247	0.095321	0.510629	11867.471680
1212.383217	0.095464	0.510629	11960.071289
1213.422265	1.300499	0.445326	550.111145
1213.423290	1.802754	0.445326	2397.933838
1213.424349	1.756542	0.445326	4258.111328
1213.425235	1.704434	0.445326	5768.239258
1213.426147	1.651871	0.445326	7274.746094
1213.427225	1.595845	0.445326	8995.066406
1213.428163	1.547798	0.445326	10446.900391
1213.429039	0.831291	0.445326	11175.111328
1213.430065	0.096833	0.445326	11274.462891
1213.431093	0.095339	0.445326	11372.471680
1213.431982	0.095314	0.445326	11457.206055
1213.432916	0.095277	0.445326	11546.195312
1213.433964	0.095306	0.445326	11646.076172
1213.434903	0.095248	0.445326	11735.513672
1213.435766	0.095372	0.445326	11817.820312
1213.436829	0.095424	0.445326	11919.255859
1213.437839	0.095343	0.445326	12015.552734
1213.438729	0.095317	0.445326	12100.384766
1214.445373	1.310230	0.502918	560.778259
1214.446239	1.803289	0.502918	2122.426270
1214.447341	1.762383	0.502918	4064.572021
1214.448259	1.708220	0.502918	5632.718262
1214.449144	1.658998	0.502918	7100.931152
1214.450157	1.605443	0.502918	8727.245117
1214.451167	1.552771	0.502918	10295.543945
1214.452064	0.965757	0.502918	11161.828125
1214.452919	0.104850	0.502918	11251.474609
1214.454011	0.095281	0.502918	11355.521484
1214.454906	0.095339	0.502918	11440.850586
1214.455782	0.095347	0.502918	11524.374023
1214.456764	0.095471	0.502918	11618.126953
1214.457772	0.095365	0.502918	11714.254883
1214.458661	0.095284	0.502918	11798.962891
1214.459521	0.095431	0.502918	11881.033203
1214.460594	0.095435	0.502918	11983.434570
1214.461525	0.095273	0.502918	12072.133789
1215.501258	1.317418	0.455856	575.711731
1215.502124	1.804878	0.455856	2138.736084
1215.503181	1.764295	0.455856	4003.595215
1215.504205	1.704749	0.455856	5749.257812
1215.505098	1.654138	0.455856	7226.403320
1215.506057	1.603568	0.455856	8764.225586
1215.507117	1.549706	0.455856	10406.914062
1215.508052	0.780769	0.455856	11136.933594
1215.508907	0.098386	0.455856	11221.053711
1215.509966	0.095383	0.455856	11322.064453
1215.510976	0.095383	0.455856	11418.401367
1215.511849	0.095339	0.455856	11501.632812
1215.512807	0.095405	0.455856	11593.031250
1215.513862	0.095387	0.455856	11693.664062
1215.514777	0.095270	0.455856	11780.835937
1215.515645	0.095358	0.455856	11863.606445
1215.516709	0.095409	0.455856	11965.121094
1215.517708	0.095347	0.455856	12060.372070
1216.525492	1.302041	0.489424	546.857239
1216.526551	1.803032	0.489424	2456.268311
1216.527576	1.755018	0.489424	4255.162109
1216.528475	1.703247	0.489424	5786.381348
1216.529454	1.649187	0.489424	7400.935547
1216.530516	1.592919	0.489424	9092.615234
1216.531430	1.545765	0.489424	10505.445312
1216.532308	0.748813	0.489424	11162.903320
1216.533408	0.095577	0.489424	11268.038086
1216.534371	0.095288	0.489424	11359.800781
1216.535253	0.095237	0.489424	11443.799805
1216.536256	0.095361	0.489424	11539.447266
1216.537309	0.095251	0.489424	11639.747070
1216.538200	0.095233	0.489424	11724.599609
1216.539076	0.095277	0.489424	11808.062500
1216.540173	0.095281	0.489424	11912.585937
1216.541127	0.095178	0.489424	12003.385742
1216.541987	0.095262	0.489424	12085.311523
1217.579702	1.308581	0.465834	548.295654
1217.580758	1.804596	0.465834	2453.948975
1217.581637	1.763800	0.465834	4004.329102
1217.582521	1.712732	0.465834	5518.383789
1217.583491	1.658434	0.465834	7127.064453
1217.584446	1.606479	0.465834	8661.251953
1217.585363	1.559842	0.465834	10091.626953
1217.586244	1.177317	0.465834	11128.842773
1217.587292	0.106512	0.465834	11240.467773
1217.588186	0.095222	0.465834	11325.596680
1217.589062	0.095281	0.465834	11409.062500
1217.589970	0.095350	0.465834	11495.640625
1217.590970	0.095317	0.465834	11590.958008
1217.591885	0.095251	0.465834	11678.113281
1217.592764	0.095325	0.465834	11761.903320
1217.593767	0.095306	0.465834	11857.496094
1217.594654	0.095292	0.465834	11942.019531
1217.595571	0.095299	0.465834	12029.409180
1218.604488	1.318623	0.491389	574.919678
1218.605348	1.803776	0.491389	2126.166504
1218.606445	1.762610	0.491389	4059.749512
1218.607443	1.704269	0.491389	5760.609863
1218.608320	1.654523	0.491389	7211.626465
1218.609312	1.602165	0.491389	8800.974609
1218.610365	1.548582	0.491389	10431.630859
1218.611288	0.766989	0.491389	11139.561523
1218.612154	0.097888	0.491389	11224.333008
1218.613267	0.095486	0.491389	11330.608398
1218.614227	0.095405	0.491389	11422.197266
1218.615097	0.095380	0.491389	11505.177734
1218.616123	0.095435	0.491389	11603.093750
1218.617166	0.095376	0.491389	11702.571289
1218.618057	0.095273	0.491389	11787.459961
1218.618960	0.095394	0.491389	11873.600586
1218.620033	0.095427	0.491389	11975.994141
1218.620994	0.095369	0.491389	12067.643555
1219.659867	1.472563	0.437869	845.251404
1219.660833	1.804072	0.437869	2587.985107
1219.661711	1.760365	0.437869	4133.585449
1219.662607	1.706993	0.437869	5663.051758
1219.663688	1.649041	0.437869	7445.664551
1219.664575	1.600818	0.437869	8865.589844
1219.665436	1.556587	0.437869	10205.811523
1219.666463	0.854158	0.437869	11083.031250
1219.667436	0.097079	0.437869	11177.489258
1219.668314	0.095270	0.437869	11261.135742
1219.669179	0.095292	0.437869	11343.563477
1219.670317	0.095303	0.437869	11452.017578
1219.671208	0.095233	0.437869	11536.870117
1219.672069	0.095306	0.437869	11618.928711
1219.673146	0.095314	0.437869	11721.582031
1219.674110	0.095343	0.437869	11813.493164
1219.674986	0.095365	0.437869	11897.033203
1219.675852	0.095299	0.437869	11979.562500
1220.683763	1.374763	0.492888	650.262939
1220.684656	1.806054	0.492888	2263.068848
1220.685630	1.765708	0.492888	3982.868408
1220.686699	1.703152	0.492888	5803.538086
1220.687630	1.650549	0.492888	7340.199219
1220.688497	1.603140	0.492888	8730.121094
1220.689596	1.548772	0.492888	10432.221680
1220.690585	0.659828	0.492888	11084.791016
1220.691469	0.096530	0.492888	11170.123047
1220.692472	0.095405	0.492888	11265.814453
1220.693510	0.095361	0.492888	11364.799805
1220.694411	0.095409	0.492888	11450.763672
1220.695270	0.095460	0.492888	11532.763672
1220.696352	0.095453	0.492888	11636.043945
1220.697313	0.095262	0.492888	11727.590820
1220.698185	0.095383	0.492888	11810.764648
1220.699179	0.095490	0.492888	11905.681641
1220.700241	0.095343	0.492888	12006.935547
1221.738937	1.327917	0.442715	563.036987
1221.740042	1.803270	0.442715	2555.650635
1221.740952	1.758732	0.442715	4156.096680
1221.741838	1.707730	0.442715	5669.145020
1221.742841	1.652146	0.442715	7326.247559
1221.743841	1.598020	0.442715	8924.267578
1221.744742	1.552306	0.442715	10322.895508
1221.745616	0.936258	0.442715	11141.185547
1221.746727	0.097053	0.442715	11249.011719
1221.747630	0.095270	0.442715	11335.040039
1221.748505	0.095277	0.442715	11418.407227
1221.749529	0.095435	0.442715	11516.131836
1221.750516	0.095288	0.442715	11610.181641
1221.751411	0.095317	0.442715	11695.490234
1221.752267	0.095332	0.442715	11777.094727
1221.753363	0.095288	0.442715	11881.530273
1221.754256	0.095237	0.442715	11966.577148
1221.755124	0.095295	0.442715	12049.293945
1222.762925	1.420298	0.493263	751.337585
1222.763885	1.804863	0.493263	2484.006348
1222.764746	1.763936	0.493263	4002.754883
1222.765777	1.703881	0.493263	5759.455566
1222.766812	1.646243	0.493263	7463.316895
1222.767707	1.598584	0.493263	8894.049805
1222.768651	1.551075	0.493263	10358.264648
1222.769724	0.638676	0.493263	11043.563477
1222.770663	0.095533	0.493263	11133.269531
1222.771527	0.095299	0.493263	11215.608398
1222.772597	0.095376	0.493263	11317.661133
1222.773611	0.095339	0.493263	11414.334961
1222.774504	0.095314	0.493263	11499.450195
1222.775471	0.095372	0.493263	11591.674805
1222.776528	0.095248	0.493263	11692.351562
1222.777448	0.095314	0.493263	11780.040039
1222.778309	0.095325	0.493263	11862.114258
1222.779387	0.095482	0.493263	11965.043945
1223.818815	1.318978	0.417147	567.160645
1223.819911	1.803995	0.417147	2544.339600
1223.820789	1.761427	0.417147	4090.872559
1223.821662	1.710384	0.417147	5584.038086
1223.822709	1.651553	0.417147	7313.213867
1223.823699	1.599214	0.417147	8896.435547
1223.824578	1.553470	0.417147	10261.936523
1223.825464	0.961337	0.417147	11113.680664
1223.826581	0.097496	0.417147	11222.583984
1223.827470	0.095251	0.417147	11307.262695
1223.828332	0.095248	0.417147	11389.366211
1223.829384	0.095361	0.417147	11489.686523
1223.830357	0.095277	0.417147	11582.391602
1223.831226	0.095251	0.417147	11665.165039
1223.832302	0.095402	0.417147	11767.817383
1223.833330	0.095383	0.417147	11865.871094
1223.834213	0.095303	0.417147	11950.023437
1223.835136	0.095438	0.417147	12038.113281
1224.843381	1.383281	0.469818	665.358337
1224.844272	1.805892	0.469818	2274.408447
1224.845244	1.765331	0.469818	3990.310059
1224.846306	1.703595	0.469818	5799.527832
1224.847228	1.651428	0.469818	7322.144531
1224.848095	1.603729	0.469818	8712.578125
1224.849186	1.549728	0.469818	10403.331055
1224.850183	0.684386	0.469818	11085.664062
1224.851082	0.096467	0.469818	11172.387695
1224.852090	0.095449	0.469818	11268.600586
1224.853140	0.095354	0.469818	11368.722656
1224.854022	0.095266	0.469818	11452.747070
1224.854879	0.095358	0.469818	11534.468750
1224.855977	0.095372	0.469818	11639.187500
1224.856941	0.095343	0.469818	11731.098633
1224.857803	0.095284	0.469818	11813.233398
1224.858844	0.095490	0.469818	11912.637695
1224.859887	0.095343	0.469818	12012.080078
1225.897537	1.312841	0.432507	559.270081
1225.898513	1.801992	0.432507	2318.014404
1225.899581	1.757677	0.432507	4195.213379
1225.900497	1.704071	0.432507	5756.142578
1225.901369	1.652977	0.432507	7197.538574
1225.902476	1.595753	0.432507	8964.037109
1225.903473	1.546011	0.432507	10505.410156
1225.904346	0.769739	0.432507	11177.392578
1225.905403	0.096207	0.432507	11279.083984
1225.906440	0.095339	0.432507	11377.951172
1225.907331	0.095299	0.432507	11462.862305
1225.908243	0.095350	0.432507	11549.822266
1225.909311	0.095394	0.432507	11651.703125
1225.910262	0.095303	0.432507	11742.335937
1225.911125	0.095383	0.432507	11824.651367
1225.912171	0.095332	0.432507	11924.369141
1225.913186	0.095292	0.432507	12021.089844
1225.914076	0.095281	0.432507	12105.889648
1226.922776	1.397948	0.476038	710.157532
1226.923692	1.805555	0.476038	2364.046143
1226.924556	1.765400	0.476038	3889.352051
1226.925661	1.703529	0.476038	5771.751465
1226.926654	1.647371	0.476038	7407.590332
1226.927540	1.600609	0.476038	8825.730469
1226.928551	1.549914	0.476038	10392.694336
1226.929596	0.655115	0.476038	11077.289062
1226.930480	0.095944	0.476038	11162.103516
1226.931343	0.095391	0.476038	11244.425781
1226.932434	0.095490	0.476038	11348.604492
1226.933403	0.095281	0.476038	11440.931641
1226.934271	0.095314	0.476038	11523.664062
1226.935302	0.095416	0.476038	11622.038086
1226.936344	0.095398	0.476038	11721.442383
1226.937236	0.095284	0.476038	11806.436523
1226.938162	0.095424	0.476038	11894.798828
1226.939238	0.095497	0.476038	11997.553711
1227.976776	1.319279	0.413139	576.524719
1227.977641	1.804369	0.413139	2137.303955
1227.978718	1.762712	0.413139	4035.745117
1227.979729	1.704104	0.413139	5758.594238
1227.980617	1.654116	0.413139	7227.449219
1227.981604	1.602363	0.413139	8808.981445
1227.982655	1.548567	0.413139	10436.525391
1227.983583	0.764235	0.413139	11145.735352
1227.984438	0.097950	0.413139	11229.483398
1227.985513	0.095508	0.413139	11332.154297
1227.986490	0.095314	0.413139	11425.275391
1227.987367	0.095321	0.413139	11508.872070
1227.988350	0.095328	0.413139	11602.580078
1227.989400	0.095317	0.413139	11702.663086
1227.990307	0.095325	0.413139	11789.123047
1227.991173	0.095332	0.413139	11871.680664
1227.992287	0.095486	0.413139	11978.051758
1227.993265	0.095281	0.413139	12071.236328
1229.002983	1.368856	0.476416	631.042725
1229.003873	1.805189	0.476416	2237.661133
1229.004754	1.770685	0.476416	3797.634521
1229.005734	1.714567	0.476416	5477.909668
1229.006688	1.659906	0.476416	7061.459961
1229.007574	1.612518	0.476416	8490.151367
1229.008538	1.563534	0.476416	9997.398437
1229.009569	1.058873	0.476416	11089.096680
1229.010449	0.110918	0.476416	11186.704102
1229.011308	0.095350	0.476416	11268.610352
1229.012364	0.095369	0.476416	11369.319336
1229.013306	0.095219	0.476416	11459.015625
1229.014173	0.095288	0.476416	11541.630859
1229.015107	0.095376	0.476416	11630.711914
1229.016157	0.095325	0.476416	11730.802734
1229.017044	0.095273	0.476416	11815.310547
1229.017908	0.095354	0.476416	11897.696289
1229.018935	0.095486	0.476416	11995.759766
1230.055819	1.383875	0.422803	698.856628
1230.056725	1.805695	0.422803	2334.815918
1230.057591	1.766898	0.422803	3864.949707
1230.058692	1.704749	0.422803	5741.877930
1230.059686	1.648564	0.422803	7380.550781
1230.060583	1.601158	0.422803	8816.790039
1230.061594	1.550405	0.422803	10384.250000
1230.062649	0.642843	0.422803	11062.449219
1230.063534	0.096035	0.422803	11147.440430
1230.064419	0.095442	0.422803	11231.906250
1230.065510	0.095398	0.422803	11335.985352
1230.066461	0.095328	0.422803	11426.642578
1230.067321	0.095299	0.422803	11508.599609
1230.068352	0.095460	0.422803	11607.019531
1230.069381	0.095332	0.422803	11705.116211
1230.070248	0.095321	0.422803	11787.759766
1230.071162	0.095350	0.422803	11874.910156
1230.072234	0.095380	0.422803	11977.157227
1231.081634	1.411912	0.487091	728.546387
1231.082658	1.802959	0.487091	2574.776367
1231.083558	1.758563	0.487091	4157.483398
1231.084508	1.704075	0.487091	5776.354492
1231.085569	1.644251	0.487091	7520.904297
1231.086507	1.594764	0.487091	9016.792969
1231.087375	1.549168	0.487091	10361.470703
1231.088445	0.637460	0.487091	11043.552734
1231.089438	0.095500	0.487091	11138.384766
1231.090324	0.095317	0.487091	11222.835937
1231.091289	0.095493	0.487091	11314.987305
1231.092314	0.095442	0.487091	11412.815430
1231.093230	0.095435	0.487091	11500.233398
1231.094088	0.095427	0.487091	11582.110352
1231.095160	0.095427	0.487091	11684.408203
1231.096164	0.095391	0.487091	11780.180664
1231.097036	0.095361	0.487091	11863.335937
1231.098009	0.095438	0.487091	11956.197266
1232.135088	1.417903	0.407290	747.234802
1232.136094	1.803468	0.407290	2561.523682
1232.136974	1.759918	0.407290	4110.251953
1232.137981	1.701910	0.407290	5824.075684
1232.139066	1.642566	0.407290	7606.259766
1232.139948	1.594127	0.407290	9012.280273
1232.140822	1.547769	0.407290	10365.030273
1232.141937	0.568297	0.407290	10998.681641
1232.142896	0.095277	0.407290	11090.052734
1232.143760	0.095343	0.407290	11172.428711
1232.144777	0.095519	0.407290	11269.571289
1232.145822	0.095299	0.407290	11369.159180
1232.146704	0.095358	0.407290	11453.264648
1232.147615	0.095358	0.407290	11540.135742
1232.148689	0.095468	0.407290	11642.667969
1232.149645	0.095248	0.407290	11733.724609
1232.150512	0.095343	0.407290	11816.386719
1232.151554	0.095504	0.407290	11915.902344
1233.161629	1.401273	0.466821	714.649353
1233.162623	1.803834	0.466821	2507.660645
1233.163517	1.760834	0.466821	4081.845947
1233.164514	1.703207	0.466821	5779.943359
1233.165564	1.644672	0.466821	7506.848633
1233.166474	1.596097	0.466821	8959.296875
1233.167339	1.550171	0.466821	10300.194336
1233.168454	0.627894	0.466821	11000.296875
1233.169425	0.095365	0.466821	11092.896484
1233.170295	0.095328	0.466821	11175.832031
1233.171358	0.095413	0.466821	11277.255859
1233.172391	0.095387	0.466821	11375.791016
1233.173278	0.095288	0.466821	11460.311523
1233.174173	0.095405	0.466821	11545.699219
1233.175253	0.095449	0.466821	11648.784180
1233.176210	0.095281	0.466821	11739.967773
1233.177070	0.095372	0.466821	11821.988281
1233.178110	0.095453	0.466821	11921.259766
1234.213444	1.323413	0.431658	569.067627
1234.214309	1.803208	0.431658	2128.842529
1234.215412	1.761742	0.431658	4072.043945
1234.216327	1.707795	0.431658	5634.676758
1234.217209	1.658445	0.431658	7097.425293
1234.218210	1.605399	0.431658	8704.429687
1234.219229	1.552731	0.431658	10286.662109
1234.220136	0.951519	0.431658	11149.689453
1234.220998	0.103759	0.431658	11239.128906
1234.222102	0.095354	0.431658	11344.399414
1234.222992	0.095288	0.431658	11429.206055
1234.223863	0.095387	0.431658	11512.288086
1234.224859	0.095347	0.431658	11607.252930
1234.225852	0.095369	0.431658	11701.954102
1234.226735	0.095240	0.431658	11786.051758
1234.227590	0.095336	0.431658	11867.563477
1234.228658	0.095464	0.431658	11969.518555
1234.229579	0.095310	0.431658	12057.298828
1235.241375	1.403104	0.472501	716.986328
1235.242381	1.803212	0.472501	2531.017090
1235.243278	1.759881	0.472501	4109.630859
1235.244259	1.703060	0.472501	5780.333008
1235.245328	1.643610	0.472501	7537.351562
1235.246245	1.594797	0.472501	8999.781250
1235.247111	1.548508	0.472501	10340.789062
1235.248208	0.611345	0.472501	11011.434570
1235.249192	0.095215	0.472501	11105.125977
1235.250059	0.095369	0.472501	11187.810547
1235.251131	0.095398	0.472501	11290.077148
1235.252167	0.095325	0.472501	11388.833984
1235.253058	0.095299	0.472501	11473.745117
1235.253945	0.095365	0.472501	11558.333984
1235.255046	0.095361	0.472501	11663.327148
1235.256004	0.095262	0.472501	11754.588867
1235.256868	0.095372	0.472501	11836.990234
1235.257920	0.095475	0.472501	11937.429687
1236.291881	1.409828	0.428967	733.110535
1236.292782	1.805350	0.428967	2359.731201
1236.293656	1.767198	0.428967	3904.262695
1236.294665	1.709374	0.428967	5629.020508
1236.295678	1.651549	0.428967	7302.039551
1236.296562	1.604337	0.428967	8720.273437
1236.297573	1.553694	0.428967	10291.057617
1236.298630	0.734923	0.428967	11067.871094
1236.299513	0.096672	0.428967	11153.232422
1236.300377	0.095350	0.428967	11235.615234
1236.301466	0.095446	0.428967	11339.555664
1236.302446	0.095262	0.428967	11432.913086
1236.303314	0.095222	0.428967	11515.566406
1236.304366	0.095325	0.428967	11615.847656
1236.305396	0.095332	0.428967	11714.040039
1236.306286	0.095255	0.428967	11798.817383
1236.307203	0.095314	0.428967	11886.219727
1236.308268	0.095310	0.428967	11987.724609
1237.320989	1.405140	0.469181	713.811340
1237.322026	1.802915	0.469181	2583.434082
1237.322923	1.758065	0.469181	4160.418457
1237.323866	1.703661	0.469181	5766.970703
1237.324945	1.643602	0.469181	7540.417480
1237.325888	1.593340	0.469181	9042.937500
1237.326754	1.548611	0.469181	10384.034180
1237.327819	0.624939	0.469181	11049.593750
1237.328815	0.095416	0.469181	11144.627930
1237.329706	0.095288	0.469181	11229.529297
1237.330675	0.095420	0.469181	11321.991211
1237.331705	0.095361	0.469181	11420.212891
1237.332622	0.095262	0.469181	11507.568359
1237.333479	0.095332	0.469181	11589.267578
1237.334556	0.095479	0.469181	11692.097656
1237.335561	0.095310	0.469181	11787.883789
1237.336437	0.095321	0.469181	11871.384766
1237.337409	0.095310	0.469181	11964.026367
1238.371843	1.371482	0.425808	677.512085
1238.372727	1.805618	0.425808	2273.678223
1238.373638	1.766766	0.425808	3883.202148
1238.374716	1.705019	0.425808	5721.212891
1238.375660	1.652472	0.425808	7281.146484
1238.376527	1.605937	0.425808	8673.494141
1238.377566	1.552863	0.425808	10286.917969
1238.378596	0.758829	0.425808	11068.511719
1238.379475	0.097573	0.425808	11154.278320
1238.380432	0.095405	0.425808	11245.581055
1238.381475	0.095325	0.425808	11345.004883
1238.382404	0.095266	0.425808	11433.506836
1238.383260	0.095361	0.425808	11515.135742
1238.384286	0.095409	0.425808	11613.025391
1238.385301	0.095299	0.425808	11709.753906
1238.386199	0.095328	0.425808	11795.358398
1238.387162	0.095416	0.425808	11887.244141
1238.388211	0.095314	0.425808	11987.228516
1239.399862	1.305051	0.464384	549.426636
1239.400921	1.802520	0.464384	2458.294922
1239.401942	1.754773	0.464384	4249.917969
1239.402839	1.702914	0.464384	5777.431641
1239.403808	1.648909	0.464384	7375.224121
1239.404864	1.593105	0.464384	9057.542969
1239.405775	1.546425	0.464384	10466.335937
1239.406644	0.802365	0.464384	11163.590820
1239.407748	0.095848	0.464384	11269.407227
1239.408734	0.095240	0.464384	11363.314453
1239.409630	0.095259	0.464384	11448.666016
1239.410616	0.095347	0.464384	11542.677734
1239.411682	0.095251	0.464384	11644.215820
1239.412574	0.095222	0.464384	11729.154297
1239.413431	0.095321	0.464384	11810.844727
1239.414536	0.095398	0.464384	11916.259766
1239.415491	0.095171	0.464384	12007.148437
1239.416349	0.095200	0.464384	12088.830078
1240.451362	1.401574	0.425768	719.007202
1240.452277	1.805471	0.425768	2371.013184
1240.453142	1.765726	0.425768	3898.366211
1240.454226	1.704243	0.425768	5745.765625
1240.455221	1.648513	0.425768	7386.036133
1240.456108	1.601016	0.425768	8806.136719
1240.457103	1.551522	0.425768	10349.901367
1240.458146	0.685100	0.425768	11064.460937
1240.459054	0.096171	0.425768	11151.784180
1240.459909	0.095358	0.425768	11233.315430
1240.461000	0.095387	0.425768	11337.382812
1240.461986	0.095277	0.425768	11431.326172
1240.462874	0.095372	0.425768	11516.016602
1240.463846	0.095449	0.425768	11608.792969
1240.464882	0.095339	0.425768	11707.564453
1240.465780	0.095273	0.425768	11793.120117
1240.466640	0.095339	0.425768	11875.112305
1240.467741	0.095442	0.425768	11980.193359
1241.480029	1.334908	0.455835	594.034302
1241.480901	1.804369	0.455835	2167.444092
1241.481895	1.766151	0.455835	3922.998291
1241.482774	1.714135	0.455835	5429.722656
1241.483669	1.663759	0.455835	6918.786621
1241.484536	1.614998	0.455835	8318.989258
1241.485561	1.564043	0.455835	9922.133789
1241.486488	1.257803	0.455835	11088.117187
1241.487361	0.141687	0.455835	11211.809570
1241.488363	0.095266	0.455835	11307.266602
1241.489255	0.095317	0.455835	11392.290039
1241.490174	0.095277	0.455835	11479.849609
1241.491039	0.095343	0.455835	11562.321289
1241.492030	0.095266	0.455835	11656.730469
1241.492963	0.095229	0.455835	11745.579102
1241.493821	0.095262	0.455835	11827.314453
1241.494860	0.095295	0.455835	11926.326172
1241.495755	0.095251	0.455835	12011.576172
1242.530076	1.366351	0.416845	710.502625
1242.531123	1.801948	0.416845	2597.142334
1242.532049	1.755945	0.416845	4223.147461
1242.532909	1.704917	0.416845	5689.375977
1242.533977	1.646466	0.416845	7447.801758
1242.534987	1.592717	0.416845	9056.446289
1242.535870	1.548343	0.416845	10423.633789
1242.536859	0.697299	0.416845	11113.261719
1242.537910	0.095511	0.416845	11213.644531
1242.538808	0.095292	0.416845	11299.216797
1242.539669	0.095314	0.416845	11381.282227
1242.540736	0.095372	0.416845	11483.044922
1242.541715	0.095215	0.416845	11576.259766
1242.542608	0.095284	0.416845	11661.348633
1242.543590	0.095431	0.416845	11755.061523
1242.544651	0.095226	0.416845	11856.095703
1242.545553	0.095244	0.416845	11942.005859
1242.546418	0.095306	0.416845	12024.446289
1243.559360	1.307362	0.467195	555.628906
1243.560236	1.804640	0.467195	2136.493408
1243.561165	1.771886	0.467195	3782.575439
1243.562094	1.716467	0.467195	5377.173828
1243.563024	1.664392	0.467195	6925.058594
1243.563889	1.616078	0.467195	8322.965820
1243.564928	1.563992	0.467195	9947.953125
1243.565812	1.264797	0.467195	11066.034180
1243.566723	0.142581	0.467195	11195.924805
1243.567603	0.095200	0.467195	11279.701172
1243.568592	0.095215	0.467195	11373.869141
1243.569519	0.095237	0.467195	11462.153320
1243.570392	0.095164	0.467195	11545.231445
1243.571404	0.095229	0.467195	11641.603516
1243.572304	0.095182	0.467195	11727.267578
1243.573184	0.095266	0.467195	11811.101562
1243.574134	0.095325	0.467195	11901.660156
1243.575110	0.095259	0.467195	11994.632812
1244.609971	1.398798	0.426960	763.743530
1244.611029	1.801285	0.426960	2669.503418
1244.611944	1.754542	0.426960	4274.909668
1244.612809	1.702562	0.426960	5747.625977
1244.613907	1.643295	0.426960	7551.963379
1244.614898	1.590520	0.426960	9128.168945
1244.615775	1.545458	0.426960	10483.535156
1244.616796	0.619424	0.426960	11115.966797
1244.617835	0.095328	0.426960	11215.012695
1244.618708	0.095336	0.426960	11298.241211
1244.619572	0.095394	0.426960	11380.662109
1244.620669	0.095468	0.426960	11485.389648
1244.621641	0.095372	0.426960	11578.091797
1244.622508	0.095328	0.426960	11660.741211
1244.623525	0.095398	0.426960	11757.760742
1244.624564	0.095310	0.426960	11856.788086
1244.625455	0.095270	0.426960	11941.673828
1244.626366	0.095336	0.426960	12028.524414
1245.638857	1.323794	0.462212	577.174133
1245.639734	1.804406	0.462212	2159.637939
1245.640595	1.772802	0.462212	3686.020020
1245.641600	1.716372	0.462212	5410.974121
1245.642529	1.664176	0.462212	6956.993652
1245.643393	1.616451	0.462212	8353.607422
1245.644422	1.563944	0.462212	9962.906250
1245.645324	1.255902	0.462212	11095.729492
1245.646214	0.138801	0.462212	11219.262695
1245.647121	0.095281	0.462212	11305.682617
1245.648115	0.095266	0.462212	11400.376953
1245.649038	0.095288	0.462212	11488.328125
1245.649918	0.095303	0.462212	11572.194336
1245.650921	0.095328	0.462212	11667.808594
1245.651831	0.095325	0.462212	11754.553711
1245.652744	0.095358	0.462212	11841.615234
1245.653602	0.095387	0.462212	11923.457031
1245.654646	0.095405	0.462212	12023.060547
1246.689987	1.448108	0.412068	803.699829
1246.691038	1.801468	0.412068	2697.043213
1246.691938	1.754799	0.412068	4276.361816
1246.692847	1.701471	0.412068	5822.999023
1246.693941	1.641332	0.412068	7618.616211
1246.694894	1.591252	0.412068	9135.080078
1246.695757	1.546842	0.412068	10470.004883
1246.696825	0.572988	0.412068	11081.956055
1246.697834	0.095193	0.412068	11178.005859
1246.698724	0.095255	0.412068	11262.783203
1246.699690	0.095325	0.412068	11354.867187
1246.700736	0.095336	0.412068	11454.587891
1246.701652	0.095240	0.412068	11541.828125
1246.702509	0.095317	0.412068	11623.514648
1246.703576	0.095446	0.412068	11725.355469
1246.704577	0.095284	0.412068	11820.735352
1246.705448	0.095251	0.412068	11903.699219
1246.706412	0.095350	0.412068	11995.617187
1247.717972	1.336315	0.456367	579.960571
1247.718864	1.804856	0.456367	2189.892090
1247.719732	1.772509	0.456367	3728.429443
1247.720806	1.711337	0.456367	5566.405273
1247.721714	1.659078	0.456367	7072.848633
1247.722598	1.610925	0.456367	8496.906250
1247.723460	1.564677	0.456367	9845.657227
1247.724515	1.151433	0.456367	11060.418945
1247.725396	0.122311	0.456367	11168.174805
1247.726266	0.095259	0.456367	11251.049805
1247.727265	0.095339	0.456367	11346.293945
1247.728181	0.095325	0.456367	11433.611328
1247.729082	0.095336	0.456367	11519.508789
1247.729959	0.095350	0.456367	11603.130859
1247.730971	0.095365	0.456367	11699.640625
1247.731866	0.095284	0.456367	11784.919922
1247.732740	0.095435	0.456367	11868.330078
1247.733671	0.095486	0.456367	11957.227539
1248.769828	1.416991	0.409373	734.001343
1248.770855	1.802871	0.409373	2585.549805
1248.771756	1.757820	0.409373	4169.345703
1248.772700	1.703723	0.409373	5777.660156
1248.773772	1.643555	0.409373	7539.550781
1248.774724	1.593523	0.409373	9056.584961
1248.775588	1.548622	0.409373	10394.593750
1248.776667	0.596129	0.409373	11037.817383
1248.777665	0.095200	0.409373	11132.827148
1248.778557	0.095273	0.409373	11217.811523
1248.779513	0.095350	0.409373	11308.966797
1248.780555	0.095347	0.409373	11408.318359
1248.781469	0.095240	0.409373	11495.368164
1248.782326	0.095292	0.409373	11577.033203
1248.783385	0.095446	0.409373	11678.110352
1248.784389	0.095321	0.409373	11773.812500
1248.785261	0.095273	0.409373	11856.890625
1248.786252	0.095317	0.409373	11951.350586
1249.798241	1.340087	0.441934	596.338562
1249.799114	1.804658	0.441934	2171.805176
1249.799977	1.773278	0.441934	3702.143799
1249.800964	1.715548	0.441934	5395.389648
1249.801883	1.663422	0.441934	6924.074219
1249.802777	1.615759	0.441934	8368.562500
1249.803767	1.565409	0.441934	9918.317383
1249.804706	1.224364	0.441934	11067.995117
1249.805628	0.129034	0.441934	11186.964844
1249.806490	0.095200	0.441934	11269.027344
1249.807521	0.095186	0.441934	11367.164062
1249.808414	0.093479	0.441934	11450.640625
1249.809290	0.095142	0.441934	11533.984375
1249.810269	0.095350	0.441934	11627.332031
1249.811226	0.095211	0.441934	11718.449219
1249.812148	0.095314	0.441934	11806.328125
1249.813012	0.095328	0.441934	11888.691406
1249.814029	0.095299	0.441934	11985.610352
1250.848571	1.302733	0.415109	551.056091
1250.849600	1.802966	0.415109	2406.308350
1250.850642	1.755765	0.415109	4235.815918
1250.851538	1.703419	0.415109	5762.079590
1250.852469	1.651549	0.415109	7299.671875
1250.853542	1.594402	0.415109	9010.464844
1250.854500	1.546230	0.415109	10491.753906
1250.855371	0.783823	0.415109	11174.463867
1250.856426	0.096306	0.415109	11276.066406
1250.857426	0.095281	0.415109	11371.347656
1250.858317	0.095343	0.415109	11456.297852
1250.859280	0.095457	0.415109	11548.222656
1250.860332	0.095431	0.415109	11648.616211
1250.861253	0.095281	0.415109	11736.370117
1250.862108	0.095361	0.415109	11817.904297
1250.863182	0.095321	0.415109	11920.279297
1250.864172	0.095306	0.415109	12014.632812
1250.865046	0.095295	0.415109	12097.920898
1251.877026	1.411824	0.446506	728.500977
1251.877924	1.805387	0.446506	2349.738525
1251.878798	1.767235	0.446506	3894.302002
1251.879831	1.708429	0.446506	5659.109375
1251.880820	1.651417	0.446506	7292.361328
1251.881712	1.604059	0.446506	8723.181641
1251.882582	1.557198	0.446506	10077.944336
1251.883684	0.858798	0.446506	11024.338867
1251.884586	0.098577	0.446506	11113.254883
1251.885462	0.095343	0.446506	11196.775391
1251.886450	0.095427	0.446506	11291.057617
1251.887446	0.095350	0.446506	11386.026367
1251.888340	0.095200	0.446506	11471.135742
1251.889203	0.095314	0.446506	11553.391602
1251.890288	0.095339	0.446506	11656.834961
1251.891194	0.095317	0.446506	11743.192383
1251.892063	0.095262	0.446506	11825.975586
1251.893056	0.095303	0.446506	11920.611328
1252.929440	1.409897	0.397908	728.916992
1252.930470	1.802911	0.397908	2585.915527
1252.931371	1.757889	0.397908	4169.773926
1252.932331	1.703137	0.397908	5804.785645
1252.933395	1.643068	0.397908	7553.009766
1252.934339	1.593256	0.397908	9057.042969
1252.935205	1.548625	0.397908	10398.152344
1252.936268	0.616586	0.397908	11053.583008
1252.937267	0.095273	0.397908	11148.760742
1252.938151	0.095317	0.397908	11233.021484
1252.939129	0.095314	0.397908	11326.238281
1252.940171	0.095339	0.397908	11425.582031
1252.941079	0.095222	0.397908	11512.043945
1252.941937	0.095299	0.397908	11593.810547
1252.943019	0.095365	0.397908	11696.995117
1252.944009	0.095273	0.397908	11791.315430
1252.944882	0.095259	0.397908	11874.476562
1252.945860	0.095369	0.397908	11967.747070
1253.957099	1.366846	0.422900	635.583252
1253.957983	1.805160	0.422900	2231.344727
1253.958846	1.770619	0.422900	3759.388672
1253.959929	1.708868	0.422900	5610.093262
1253.960865	1.656108	0.422900	7160.210937
1253.961746	1.608655	0.422900	8577.435547
1253.962720	1.559788	0.422900	10096.668945
1253.963771	0.923690	0.422900	11067.466797
1253.964654	0.101455	0.422900	11157.051758
1253.965517	0.095288	0.422900	11239.285156
1253.966570	0.095438	0.422900	11339.781250
1253.967506	0.095332	0.422900	11429.011719
1253.968377	0.095369	0.422900	11512.078125
1253.969312	0.095361	0.422900	11601.241211
1253.970349	0.095208	0.422900	11699.971680
1253.971242	0.095299	0.422900	11785.074219
1253.972105	0.095347	0.422900	11867.358398
1253.973165	0.095350	0.422900	11968.429687
1255.008444	1.322974	0.400168	564.909729
1255.009518	1.802369	0.400168	2500.654297
1255.010523	1.753927	0.400168	4263.351074
1255.011424	1.702273	0.400168	5797.099121
1255.012412	1.647612	0.400168	7424.939941
1255.013472	1.592040	0.400168	9112.501953
1255.014364	1.546256	0.400168	10491.762695
1255.015263	0.755914	0.400168	11171.330078
1255.016345	0.095892	0.400168	11275.085937
1255.017293	0.095306	0.400168	11365.436523
1255.018161	0.095325	0.400168	11448.178711
1255.019192	0.095515	0.400168	11546.655273
1255.020227	0.095405	0.400168	11645.399414
1255.021123	0.095354	0.400168	11730.836914
1255.022049	0.095468	0.400168	11819.240234
1255.023105	0.095460	0.400168	11920.045898
1255.024047	0.095317	0.400168	12009.834961
1255.024908	0.095310	0.400168	12091.896484
1256.036234	1.388445	0.430606	696.999268
1256.037194	1.804933	0.430606	2429.734863
1256.038066	1.764661	0.430606	3968.519043
1256.039092	1.705217	0.430606	5718.071777
1256.040136	1.647495	0.430606	7438.056641
1256.041028	1.599474	0.430606	8864.787109
1256.041969	1.552346	0.430606	10325.544922
1256.043032	0.686371	0.430606	11055.157227
1256.043971	0.095819	0.430606	11145.131836
1256.044833	0.095270	0.430606	11227.253906
1256.045878	0.095339	0.430606	11326.883789
1256.046892	0.095295	0.430606	11423.513672
1256.047783	0.095295	0.430606	11508.421875
1256.048741	0.095468	0.430606	11599.879883
1256.049790	0.095317	0.430606	11699.868164
1256.050707	0.095325	0.430606	11787.281250
1256.051566	0.095420	0.430606	11869.247070
1256.052626	0.095475	0.430606	11970.450195
1257.087559	1.320828	0.400623	567.955872
1257.088490	1.801959	0.400623	2245.579834
1257.089561	1.759197	0.400623	4129.679687
1257.090504	1.704496	0.400623	5737.019043
1257.091368	1.655211	0.400623	7167.121582
1257.092421	1.600027	0.400623	8851.950195
1257.093444	1.548655	0.400623	10436.223633
1257.094329	0.828552	0.400623	11169.492187
1257.095278	0.099382	0.400623	11263.805664
1257.096346	0.095354	0.400623	11365.643555
1257.097260	0.095354	0.400623	11452.796875
1257.098124	0.095350	0.400623	11535.179687
1257.099174	0.095339	0.400623	11635.286133
1257.100180	0.095343	0.400623	11731.201172
1257.101069	0.095328	0.400623	11815.948242
1257.102032	0.095391	0.400623	11907.809570
1257.103079	0.095347	0.400623	12007.637695
1257.103994	0.095376	0.400623	12094.906250
